timestamps,TP9,AF7,AF8,TP10,Right AUX
1532385363.997,39.062,31.738,29.297,27.832,30.273
1532385364.001,32.227,36.133,27.832,23.926,-31.250
1532385364.005,41.992,40.039,36.133,29.785,12.695
1532385364.009,36.621,26.367,29.785,30.762,82.520
1532385364.013,26.367,25.879,28.320,19.043,74.219
1532385364.017,27.832,30.762,35.645,14.160,-8.789
1532385364.021,33.691,38.086,26.367,19.531,-46.875
1532385364.025,32.715,41.992,23.438,24.902,53.711
1532385364.029,21.973,26.855,28.320,28.320,95.215
1532385364.033,18.555,19.531,28.320,20.020,-19.043
1532385364.037,19.043,25.879,32.715,13.672,-65.430
1532385364.040,30.273,29.785,37.109,25.391,41.504
1532385364.044,32.227,33.691,32.715,25.391,106.445
1532385364.048,25.391,31.738,28.320,23.438,2.441
1532385364.052,38.086,34.180,28.809,33.203,-70.312
1532385364.056,52.246,42.480,41.992,39.062,1.953
1532385364.060,37.109,33.691,38.086,32.227,93.750
1532385364.064,20.996,23.438,20.996,33.203,51.270
1532385364.068,17.578,21.973,27.832,26.367,-29.785
1532385364.072,14.648,25.879,32.227,19.043,-20.020
1532385364.076,22.461,27.344,30.762,22.949,54.688
1532385364.079,26.855,20.020,34.180,26.855,98.145
1532385364.083,30.762,23.926,37.109,36.621,29.297
1532385364.087,33.691,21.973,41.016,36.621,-28.809
1532385364.091,32.227,25.391,37.598,27.832,41.504
1532385364.095,32.227,38.574,28.809,27.344,92.773
1532385364.099,30.273,35.156,29.785,22.461,23.926
1532385364.103,33.691,32.715,44.434,22.949,-24.902
1532385364.107,36.621,19.043,42.480,19.043,5.371
1532385364.111,19.531,16.113,26.367,11.719,85.449
1532385364.115,8.301,28.809,22.461,8.301,43.945
1532385364.119,17.090,25.879,26.367,5.371,-41.992
1532385364.122,30.762,21.973,28.809,13.672,-13.184
1532385364.126,27.832,28.809,26.855,13.184,88.867
1532385364.130,28.320,38.574,26.367,14.648,76.660
1532385364.134,43.945,39.551,28.320,22.461,-35.645
1532385364.138,41.504,23.438,29.297,16.113,-26.855
1532385364.142,47.363,23.438,39.551,20.020,73.242
1532385364.146,56.641,30.273,40.527,24.414,89.355
1532385364.150,50.293,20.508,32.227,19.531,5.859
1532385364.154,43.457,17.578,34.668,22.461,-17.090
1532385364.158,35.156,17.090,28.809,22.949,76.172
1532385364.162,32.715,9.766,24.902,22.949,104.492
1532385364.165,25.879,22.461,38.086,33.203,15.625
1532385364.169,28.320,40.527,35.645,29.297,-25.391
1532385364.173,35.156,38.086,33.203,20.996,22.461
1532385364.177,29.297,28.320,41.992,27.344,97.168
1532385364.181,28.320,25.879,40.527,28.809,62.988
1532385364.185,32.227,35.156,38.086,32.227,-25.391
1532385364.189,42.480,33.691,37.598,32.715,-9.766
1532385364.193,46.387,27.344,41.992,32.227,72.266
1532385364.197,38.086,16.602,34.668,27.832,81.543
1532385364.201,32.227,12.695,30.273,26.855,-19.531
1532385364.204,27.344,29.785,35.156,26.367,-51.758
1532385364.208,27.832,37.109,37.109,24.902,57.617
1532385364.212,24.414,38.574,36.621,22.461,62.500
1532385364.216,25.391,35.645,32.227,18.555,-29.785
1532385364.220,28.320,25.879,25.879,24.414,-59.570
1532385364.224,27.832,20.508,25.391,30.762,18.555
1532385364.228,29.297,18.066,32.227,27.832,70.801
1532385364.232,26.367,22.461,41.504,26.855,22.949
1532385364.236,22.949,22.461,40.039,24.902,-44.922
1532385364.240,25.879,23.926,34.180,28.320,-10.742
1532385364.244,32.715,39.551,31.738,31.738,98.145
1532385364.247,35.645,44.434,30.762,27.344,69.824
1532385364.251,31.250,24.902,33.691,23.926,-48.340
1532385364.255,29.297,20.508,31.250,22.461,-17.090
1532385364.259,30.762,28.809,23.438,21.484,72.266
1532385364.263,29.297,33.203,24.902,24.902,64.453
1532385364.267,28.809,30.762,36.133,26.367,0.488
1532385364.271,32.227,16.113,35.156,23.438,-29.785
1532385364.275,31.738,20.020,31.250,26.367,26.855
1532385364.279,27.344,28.809,37.598,26.367,63.965
1532385364.283,28.320,38.086,43.457,27.344,13.672
1532385364.287,41.504,47.852,48.828,40.527,-1.465
1532385364.290,37.109,31.250,37.109,35.645,38.086
1532385364.294,24.902,26.367,25.391,28.320,86.426
1532385364.298,39.062,29.297,27.832,30.762,29.297
1532385364.302,40.039,27.344,27.832,32.715,-63.477
1532385364.306,20.508,15.625,26.855,33.203,-12.695
1532385364.310,23.926,14.648,31.738,29.785,73.730
1532385364.314,22.461,33.691,31.250,21.484,44.434
1532385364.318,25.391,40.039,29.297,22.949,-29.785
1532385364.322,31.738,31.738,32.227,28.320,-28.809
1532385364.326,23.438,34.668,31.738,26.367,92.285
1532385364.329,38.086,38.086,41.992,27.344,97.656
1532385364.333,40.527,29.297,45.898,25.391,-9.766
1532385364.337,26.367,23.926,33.691,24.414,-25.879
1532385364.341,28.320,26.367,25.879,25.391,52.734
1532385364.345,32.715,39.062,31.250,22.461,91.797
1532385364.349,35.156,46.387,40.039,25.879,9.277
1532385364.353,36.133,29.785,40.039,29.297,-62.012
1532385364.357,36.621,16.602,32.227,21.973,14.648
1532385364.361,33.203,19.043,30.273,22.461,111.816
1532385364.365,40.039,33.691,33.691,21.973,50.293
1532385364.369,40.039,37.109,34.668,18.066,-25.391
1532385364.372,32.715,38.086,41.992,24.902,10.742
1532385364.376,30.762,43.945,39.062,26.367,99.609
1532385364.380,23.438,38.574,22.949,18.066,75.195
1532385364.384,26.855,34.180,17.578,15.625,-1.465
1532385364.388,29.785,33.203,23.438,20.996,24.414
1532385364.392,29.785,27.832,26.855,19.531,80.566
1532385364.396,32.715,20.996,25.879,16.113,82.520
1532385364.400,33.203,15.137,27.832,20.020,17.090
1532385364.404,39.062,19.043,30.762,24.902,3.418
1532385364.408,31.738,28.320,29.785,24.414,86.426
1532385364.412,29.785,35.156,33.203,18.066,114.746
1532385364.415,29.297,43.457,35.156,14.648,38.086
1532385364.419,20.996,46.875,33.203,16.113,-20.996
1532385364.423,25.879,36.621,31.738,28.320,34.668
1532385364.427,32.715,34.180,27.344,33.691,113.281
1532385364.431,40.527,41.992,23.926,28.320,83.496
1532385364.435,37.109,33.203,20.996,23.438,3.906
1532385364.439,35.645,19.043,20.996,24.902,8.789
1532385364.443,37.598,13.184,25.879,27.832,83.496
1532385364.447,37.598,21.484,36.133,26.367,81.055
1532385364.451,35.645,34.668,39.551,21.484,-13.184
1532385364.454,26.855,40.527,37.109,22.461,-49.316
1532385364.458,25.879,42.969,24.414,26.855,70.801
1532385364.462,27.344,40.527,21.973,32.715,106.934
1532385364.466,24.414,36.621,36.621,32.715,4.395
1532385364.470,25.879,30.273,31.250,20.508,-29.785
1532385364.474,22.949,24.414,24.902,14.160,26.855
1532385364.478,22.461,28.809,35.645,18.066,95.703
1532385364.482,23.438,27.344,38.574,14.160,50.293
1532385364.486,26.855,20.996,39.062,14.648,-27.344
1532385364.490,30.762,32.227,22.949,20.020,1.953
1532385364.494,20.508,46.387,18.555,18.066,73.730
1532385364.497,23.926,40.527,34.180,20.996,55.664
1532385364.501,33.691,25.879,39.551,21.973,-27.344
1532385364.505,18.555,25.879,35.645,20.508,-5.371
1532385364.509,20.996,35.156,32.715,18.066,70.801
1532385364.513,41.992,41.504,43.945,22.949,68.848
1532385364.517,34.668,26.367,38.574,23.438,-10.742
1532385364.521,12.695,21.484,24.414,11.719,-52.246
1532385364.525,18.066,39.062,24.414,15.137,57.617
1532385364.529,31.250,42.480,33.691,24.902,107.422
1532385364.533,35.645,35.156,48.828,33.691,-1.465
1532385364.536,41.992,40.527,53.711,38.574,-58.105
1532385364.540,39.551,47.852,47.852,34.668,14.160
1532385364.544,34.668,42.969,49.805,35.645,79.102
1532385364.548,37.598,37.109,58.594,37.109,54.688
1532385364.552,52.734,51.758,63.965,40.527,-44.434
1532385364.556,51.758,62.500,55.664,40.527,-46.875
1532385364.560,38.086,43.945,45.410,32.715,67.383
1532385364.564,35.156,35.645,37.598,30.762,75.195
1532385364.568,35.645,42.969,33.691,33.691,-4.883
1532385364.572,41.504,36.133,39.062,34.180,-17.578
1532385364.576,43.457,32.227,34.668,30.273,59.570
1532385364.579,40.527,48.340,33.203,28.809,51.758
1532385364.583,43.457,54.199,44.922,36.621,-34.180
1532385364.587,40.039,54.199,49.316,31.250,-19.531
1532385364.591,38.574,50.293,47.852,26.367,63.965
1532385364.595,41.504,41.504,33.203,29.785,83.008
1532385364.599,47.363,42.969,37.598,39.062,-10.254
1532385364.603,59.570,47.363,55.664,43.945,-66.895
1532385364.607,53.223,40.039,48.828,32.227,34.180
1532385364.611,35.156,28.320,47.852,25.391,109.375
1532385364.615,32.715,37.598,49.805,26.855,42.969
1532385364.619,32.227,55.664,42.969,26.855,-16.602
1532385364.622,32.715,55.176,38.574,28.809,35.645
1532385364.626,30.273,34.668,40.039,30.273,110.840
1532385364.630,35.645,35.645,41.992,28.320,58.594
1532385364.634,46.387,47.363,44.434,34.668,-42.480
1532385364.638,48.828,33.691,44.922,37.109,-27.832
1532385364.642,36.133,25.391,41.504,26.855,71.777
1532385364.646,31.250,28.809,37.109,34.180,93.750
1532385364.650,39.551,28.809,32.715,40.527,6.836
1532385364.654,39.551,55.664,36.621,33.691,-38.574
1532385364.658,40.527,58.105,39.551,35.156,44.434
1532385364.661,42.480,36.621,32.227,29.297,99.121
1532385364.665,29.785,43.945,33.691,25.879,22.461
1532385364.669,21.484,43.945,35.156,28.809,-41.016
1532385364.673,28.320,24.902,35.645,28.320,-20.508
1532385364.677,32.715,22.949,40.039,32.227,59.570
1532385364.681,36.133,23.926,42.969,35.645,30.273
1532385364.685,38.086,30.273,40.039,33.203,-34.180
1532385364.689,39.062,46.875,38.086,35.156,-3.418
1532385364.693,34.180,44.434,41.504,34.668,102.539
1532385364.697,36.621,39.062,45.410,33.691,110.352
1532385364.701,39.551,41.504,50.293,38.574,3.418
1532385364.704,27.344,40.039,43.945,29.297,-3.418
1532385364.708,26.367,25.391,36.133,24.414,64.453
1532385364.712,20.508,12.207,37.109,28.809,46.387
1532385364.716,27.344,21.484,31.250,33.691,-23.926
1532385364.720,36.621,20.508,29.785,32.227,-61.523
1532385364.724,28.320,28.320,35.645,24.414,12.695
1532385364.728,17.090,48.340,31.250,15.625,95.215
1532385364.732,26.855,40.527,30.273,17.578,28.320
1532385364.736,37.109,30.273,33.203,21.973,-32.227
1532385364.740,36.621,21.973,29.785,20.996,29.785
1532385364.744,38.086,29.785,22.949,21.973,97.656
1532385364.747,32.715,38.086,23.438,26.367,61.035
1532385364.751,33.691,21.973,29.297,29.785,-39.551
1532385364.755,30.273,19.043,31.250,23.438,0.977
1532385364.759,29.785,27.344,32.227,18.555,76.660
1532385364.763,25.391,11.719,29.297,23.926,56.152
1532385364.767,27.832,11.230,27.344,25.879,-0.977
1532385364.771,32.715,39.062,34.668,17.090,-49.805
1532385364.775,26.367,41.016,32.227,16.113,4.395
1532385364.779,24.902,31.250,30.762,20.508,83.008
1532385364.783,31.738,21.484,32.715,20.020,15.137
1532385364.786,34.668,18.555,24.414,21.973,-44.434
1532385364.790,32.227,20.508,23.438,21.973,29.785
1532385364.794,27.832,22.461,26.855,17.578,90.820
1532385364.798,16.113,38.574,34.180,20.996,48.828
1532385364.802,11.230,36.133,33.203,19.531,-14.648
1532385364.806,14.160,21.973,19.043,11.719,-1.465
1532385364.810,12.207,23.926,13.672,12.695,73.242
1532385364.814,10.742,31.738,27.344,14.160,51.758
1532385364.818,12.207,31.250,38.574,12.695,-45.898
1532385364.822,20.996,12.695,27.832,14.160,-21.973
1532385364.826,16.113,13.184,24.414,16.602,104.004
1532385364.829,20.508,41.992,37.109,22.461,75.195
1532385364.833,27.344,39.062,39.551,22.949,-38.086
1532385364.837,23.926,21.973,31.250,24.902,-34.180
1532385364.841,26.855,20.020,28.320,23.438,40.527
1532385364.845,34.668,22.461,22.949,26.855,63.965
1532385364.849,37.598,30.273,22.461,29.785,2.441
1532385364.853,30.273,40.039,28.809,25.879,-37.598
1532385364.857,20.996,22.949,25.391,24.414,16.113
1532385364.861,12.695,14.648,20.996,20.996,66.895
1532385364.865,20.996,22.949,26.855,20.020,16.602
1532385364.868,22.949,26.855,31.738,20.508,-51.270
1532385364.872,16.113,30.762,28.809,21.973,-23.438
1532385364.876,18.066,21.484,31.738,24.414,53.711
1532385364.880,32.715,24.902,33.691,33.203,34.668
1532385364.884,31.738,25.879,27.344,32.715,-42.969
1532385364.888,23.926,28.809,28.320,32.715,-22.949
1532385364.892,23.438,33.691,31.250,33.203,57.129
1532385364.896,21.484,34.180,29.297,34.180,84.961
1532385364.900,26.855,38.574,34.180,29.785,5.371
1532385364.904,38.574,28.809,38.574,25.879,-34.668
1532385364.908,33.691,17.090,26.855,27.832,63.965
1532385364.911,21.973,18.555,22.949,16.113,103.027
1532385364.915,32.227,29.785,33.691,16.602,7.324
1532385364.919,38.574,31.738,35.645,23.438,-24.902
1532385364.923,43.457,44.434,42.969,34.180,40.039
1532385364.927,51.758,46.387,42.969,36.621,119.629
1532385364.931,40.039,31.250,29.297,19.043,59.570
1532385364.935,29.785,34.668,25.391,17.578,-21.973
1532385364.939,40.039,32.715,23.926,23.926,4.883
1532385364.943,46.387,26.367,21.973,15.137,83.984
1532385364.947,50.781,28.809,32.227,15.137,103.516
1532385364.951,56.641,30.762,36.621,20.020,5.859
1532385364.954,43.457,36.621,31.250,20.020,-28.809
1532385364.958,39.551,35.156,33.691,28.320,53.223
1532385364.962,43.945,31.250,34.668,30.273,81.055
1532385364.966,25.391,26.855,28.320,26.367,9.766
1532385364.970,15.137,23.438,29.297,31.738,-53.711
1532385364.974,22.461,31.738,29.785,33.691,4.395
1532385364.978,24.414,31.250,32.715,34.180,76.172
1532385364.982,24.902,18.555,32.715,35.156,35.645
1532385364.986,22.461,3.418,23.438,31.250,-28.809
1532385364.990,24.414,16.113,26.855,34.668,6.348
1532385364.993,35.156,37.109,34.668,32.227,102.051
1532385364.997,37.109,34.180,32.227,20.996,80.566
1532385365.001,39.062,30.762,34.180,35.645,-25.391
1532385365.005,38.574,33.691,35.645,41.504,-31.250
1532385365.009,23.926,21.973,30.273,19.043,51.270
1532385365.013,21.973,17.578,26.855,13.672,46.875
1532385365.017,25.879,21.973,23.926,21.484,-29.297
1532385365.021,25.391,30.273,25.879,22.949,-28.320
1532385365.025,27.344,15.137,28.320,22.949,62.012
1532385365.029,31.738,1.465,37.598,25.391,89.844
1532385365.033,23.438,19.043,41.016,18.555,4.883
1532385365.036,16.602,26.855,39.062,17.090,-39.062
1532385365.040,19.531,25.391,33.691,21.484,44.434
1532385365.044,16.602,27.344,21.973,24.902,122.070
1532385365.048,20.020,32.227,22.461,27.344,55.176
1532385365.052,27.344,27.344,36.133,23.926,-54.688
1532385365.056,30.273,17.090,41.016,26.367,-6.836
1532385365.060,14.648,20.020,26.367,22.461,92.773
1532385365.064,9.766,19.043,23.926,25.391,64.941
1532385365.068,20.996,15.137,34.180,33.203,-19.043
1532385365.072,19.531,14.160,37.109,25.879,-2.441
1532385365.076,18.066,19.531,32.227,19.043,101.562
1532385365.079,24.414,38.574,26.855,17.578,78.125
1532385365.083,24.414,47.852,28.809,14.648,-4.883
1532385365.087,33.691,40.039,25.879,20.020,-9.277
1532385365.091,31.738,25.879,20.996,13.184,37.598
1532385365.095,31.738,41.504,32.715,21.484,79.590
1532385365.099,39.551,45.410,36.621,31.738,25.391
1532385365.103,34.180,30.762,26.855,18.066,-13.184
1532385365.107,27.832,27.344,12.695,22.461,82.031
1532385365.111,23.438,21.484,2.930,19.043,102.051
1532385365.115,29.297,24.902,18.066,16.602,38.086
1532385365.118,29.785,25.391,28.809,23.438,-11.230
1532385365.122,25.879,28.809,30.762,21.484,6.348
1532385365.126,24.414,36.621,36.133,20.996,95.703
1532385365.130,30.762,33.691,38.086,18.555,61.035
1532385365.134,41.504,29.785,30.273,27.832,-17.090
1532385365.138,46.875,36.133,27.344,30.762,0.488
1532385365.142,43.457,43.945,37.109,32.227,66.895
1532385365.146,39.062,34.668,33.203,29.785,66.895
1532385365.150,30.762,18.555,28.320,24.902,-17.090
1532385365.154,18.555,12.207,26.367,19.531,-16.113
1532385365.158,23.438,18.066,21.484,15.625,70.801
1532385365.161,32.715,25.391,25.879,25.879,102.539
1532385365.165,28.320,24.414,25.391,28.320,33.203
1532385365.169,23.438,25.391,19.043,26.367,-44.434
1532385365.173,29.785,33.203,23.438,26.855,-11.719
1532385365.177,37.598,31.738,35.156,30.273,87.891
1532385365.181,35.156,34.668,42.480,24.414,60.059
1532385365.185,32.715,35.156,39.551,19.043,-14.648
1532385365.189,37.109,30.273,37.598,28.809,1.465
1532385365.193,44.434,28.320,38.086,31.250,54.199
1532385365.197,36.621,25.879,35.156,27.344,69.336
1532385365.201,32.227,23.926,28.809,30.762,8.301
1532385365.204,35.156,30.273,23.438,34.668,-1.465
1532385365.208,32.715,37.598,27.832,34.180,103.027
1532385365.212,35.156,32.227,32.227,32.715,108.398
1532385365.216,42.480,41.504,36.621,33.203,8.789
1532385365.220,45.410,44.922,34.668,34.180,-25.391
1532385365.224,37.109,24.902,31.250,30.273,24.414
1532385365.228,35.645,23.438,34.668,33.203,76.172
1532385365.232,29.785,27.832,30.273,34.668,22.949
1532385365.236,31.738,29.785,26.367,33.691,-57.617
1532385365.240,30.762,29.785,28.809,29.297,-9.277
1532385365.243,17.578,27.832,30.273,21.973,82.031
1532385365.247,15.625,33.203,22.949,23.926,77.148
1532385365.251,30.273,33.691,17.578,21.973,-45.410
1532385365.255,30.762,31.738,24.902,21.484,-57.617
1532385365.259,27.344,33.203,31.250,25.391,85.938
1532385365.263,31.738,34.180,27.832,27.832,97.168
1532385365.267,36.621,29.785,26.855,31.738,-7.812
1532385365.271,32.715,29.785,31.738,28.809,-64.453
1532385365.275,31.738,24.902,32.715,28.809,2.930
1532385365.279,34.180,18.555,32.715,34.180,80.566
1532385365.283,35.156,30.762,34.668,28.809,22.949
1532385365.286,28.320,37.109,25.879,23.438,-41.016
1532385365.290,20.020,32.227,22.949,17.578,-9.277
1532385365.294,27.832,38.086,30.762,19.043,70.801
1532385365.298,25.879,42.969,24.902,30.273,51.758
1532385365.302,14.648,34.668,7.324,21.973,-24.902
1532385365.306,16.113,20.508,17.090,12.695,34.180
1532385365.310,24.902,16.602,31.738,21.484,96.191
1532385365.314,30.762,23.926,30.762,22.461,49.316
1532385365.318,29.785,12.207,31.738,18.555,-3.906
1532385365.322,33.203,20.020,37.598,27.832,-11.719
1532385365.325,30.762,36.621,32.715,23.926,82.520
1532385365.329,19.043,32.715,22.461,14.648,114.258
1532385365.333,23.926,32.715,28.809,16.602,-18.066
1532385365.337,32.715,31.738,32.227,23.438,-58.105
1532385365.341,34.668,27.344,27.344,32.715,67.871
1532385365.345,22.949,20.508,25.391,33.203,125.000
1532385365.349,12.695,18.555,27.344,29.297,27.344
1532385365.353,23.438,28.320,35.645,36.133,-34.668
1532385365.357,27.344,35.156,35.645,37.598,30.762
1532385365.361,28.809,35.645,29.785,32.715,89.355
1532385365.365,41.504,38.086,35.156,37.598,72.266
1532385365.368,48.828,36.133,44.922,47.363,-3.418
1532385365.372,45.410,35.645,38.086,44.434,-7.812
1532385365.376,33.691,30.273,27.344,35.156,111.328
1532385365.380,31.250,23.438,34.180,36.133,121.094
1532385365.384,36.133,18.555,38.086,42.969,9.766
1532385365.388,39.062,25.391,35.156,46.387,-18.066
1532385365.392,39.551,40.527,34.668,36.621,45.898
1532385365.396,39.551,33.691,31.250,35.645,85.938
1532385365.400,39.551,33.203,32.227,46.387,43.945
1532385365.404,36.621,32.715,33.203,42.969,-22.949
1532385365.408,45.898,42.480,36.133,42.480,25.879
1532385365.411,44.434,46.875,34.180,42.969,87.891
1532385365.415,33.691,34.180,25.391,30.762,42.969
1532385365.419,30.273,30.273,23.926,26.367,-17.578
1532385365.423,27.344,16.602,25.879,25.391,9.766
1532385365.427,26.855,20.020,20.996,17.578,97.168
1532385365.431,27.832,20.020,19.531,18.066,58.105
1532385365.435,32.715,27.832,15.625,22.949,-46.875
1532385365.439,33.203,41.992,9.277,24.902,-30.273
1532385365.443,39.062,34.668,24.414,26.367,76.172
1532385365.447,36.133,34.180,34.668,30.273,94.727
1532385365.450,36.133,45.410,35.645,32.715,-0.488
1532385365.454,43.457,36.133,32.715,26.855,-53.223
1532385365.458,32.715,12.207,27.344,19.043,34.668
1532385365.462,20.020,17.090,19.531,13.672,98.145
1532385365.466,19.531,32.227,17.578,15.137,19.531
1532385365.470,20.020,22.461,25.391,19.531,-27.832
1532385365.474,21.484,14.648,26.367,16.602,44.434
1532385365.478,21.973,30.273,20.996,19.043,99.609
1532385365.482,31.250,43.457,11.230,24.414,60.547
1532385365.486,29.297,30.273,9.277,24.902,15.137
1532385365.490,28.809,21.484,23.926,28.809,20.020
1532385365.493,38.086,34.668,30.273,35.156,77.637
1532385365.497,25.391,32.715,19.043,26.855,87.402
1532385365.501,16.602,34.668,20.020,18.555,-4.883
1532385365.505,23.438,33.691,29.785,21.484,-33.691
1532385365.509,27.344,28.320,31.738,24.902,33.691
1532385365.513,29.785,30.762,30.273,22.949,53.711
1532385365.517,35.645,32.715,28.320,23.438,9.277
1532385365.521,34.180,26.855,24.414,27.832,-26.855
1532385365.525,27.832,27.344,19.043,26.367,50.781
1532385365.529,34.668,19.531,16.113,27.832,107.422
1532385365.533,41.016,21.973,18.066,26.855,-5.859
1532385365.536,32.715,35.645,23.926,21.484,-54.688
1532385365.540,29.297,41.016,35.156,22.949,32.227
1532385365.544,42.480,48.340,48.340,32.227,103.516
1532385365.548,31.250,40.527,43.457,33.203,53.711
1532385365.552,16.602,29.785,29.297,24.414,-12.695
1532385365.556,26.855,22.461,20.996,24.414,13.672
1532385365.560,32.227,20.020,22.461,22.949,109.863
1532385365.564,33.203,13.184,31.738,30.273,116.211
1532385365.568,40.527,13.672,32.715,39.551,7.812
1532385365.572,38.574,29.297,21.484,33.203,-22.461
1532385365.575,30.762,27.344,21.973,32.227,40.527
1532385365.579,31.250,35.645,39.551,40.039,75.684
1532385365.583,34.180,38.086,37.109,41.504,0.977
1532385365.587,30.762,36.133,36.133,36.621,-29.785
1532385365.591,42.480,35.645,37.598,35.156,37.598
1532385365.595,46.387,27.344,31.738,36.133,70.312
1532385365.599,30.762,24.902,35.645,28.809,25.391
1532385365.603,34.668,10.254,32.715,29.785,-17.090
1532385365.607,41.016,5.859,25.391,32.715,0.488
1532385365.611,38.086,25.391,29.785,26.367,68.848
1532385365.615,36.621,35.645,26.855,29.297,50.293
1532385365.618,32.715,33.691,23.926,32.227,-21.973
1532385365.622,38.086,38.574,38.574,32.227,0.488
1532385365.626,49.805,42.969,44.922,39.551,88.867
1532385365.630,42.480,24.414,36.133,31.738,63.477
1532385365.634,28.320,15.137,26.367,15.137,-51.270
1532385365.638,19.531,27.344,25.391,13.184,-48.828
1532385365.642,17.578,31.250,25.391,21.973,67.383
1532385365.646,20.020,28.809,25.879,22.949,94.727
1532385365.650,15.625,27.344,25.391,16.602,-0.488
1532385365.654,12.207,20.508,23.438,11.719,-33.691
1532385365.658,17.578,21.484,20.508,9.277,40.039
1532385365.661,20.996,25.879,19.043,11.719,101.074
1532385365.665,18.066,32.715,18.555,8.789,43.945
1532385365.669,26.855,36.621,24.902,19.043,-23.926
1532385365.673,41.504,23.438,41.016,25.391,-2.441
1532385365.677,25.391,2.930,30.762,11.719,71.777
1532385365.681,5.371,12.695,14.648,6.348,51.270
1532385365.685,8.301,33.691,25.879,10.254,-29.785
1532385365.689,12.207,22.461,35.645,16.113,-30.273
1532385365.693,9.277,11.719,32.227,17.090,61.035
1532385365.697,17.090,25.391,35.156,15.625,97.168
1532385365.700,23.438,29.297,36.133,23.926,-2.930
1532385365.704,18.555,29.297,31.250,24.902,-55.176
1532385365.708,23.438,24.902,31.250,19.531,46.875
1532385365.712,28.320,23.438,33.203,19.043,87.402
1532385365.716,25.391,28.320,38.574,27.344,-10.742
1532385365.720,21.484,20.996,36.133,32.227,-49.805
1532385365.724,21.973,30.273,28.320,28.809,6.836
1532385365.728,27.832,27.832,27.344,30.273,84.961
1532385365.732,40.527,19.043,31.250,36.621,44.434
1532385365.736,46.875,31.738,30.762,35.156,-33.203
1532385365.740,38.574,35.645,26.855,29.785,-10.742
1532385365.743,35.645,31.250,32.715,35.645,64.941
1532385365.747,43.457,19.043,41.504,38.574,72.754
1532385365.751,50.781,14.648,33.203,27.344,-22.461
1532385365.755,44.922,37.109,25.879,28.320,-38.086
1532385365.759,38.086,48.340,30.762,34.180,75.684
1532385365.763,27.832,28.809,29.297,25.391,77.148
1532385365.767,23.438,25.391,31.250,28.320,-0.977
1532385365.771,32.227,32.227,37.109,28.320,-38.574
1532385365.775,35.156,26.855,35.156,22.949,23.926
1532385365.779,34.180,11.230,32.715,26.855,83.008
1532385365.782,32.715,19.043,32.715,22.461,11.230
1532385365.786,27.832,46.387,31.250,14.648,-21.973
1532385365.790,38.574,51.270,26.367,23.926,62.988
1532385365.794,40.039,41.504,26.855,22.949,129.883
1532385365.798,23.438,35.156,35.156,29.297,69.824
1532385365.802,30.762,24.414,38.086,34.668,-9.766
1532385365.806,30.273,12.695,28.320,20.996,-17.090
1532385365.810,23.926,3.906,25.879,15.625,65.430
1532385365.814,28.809,18.066,25.391,6.836,50.781
1532385365.818,38.574,47.852,25.391,6.348,-16.602
1532385365.822,35.645,45.898,26.855,6.836,-3.906
1532385365.825,30.273,31.738,27.344,2.441,87.891
1532385365.829,33.691,35.156,26.367,4.395,93.262
1532385365.833,39.551,46.875,27.344,15.137,11.230
1532385365.837,46.387,32.227,35.645,29.785,-3.418
1532385365.841,48.340,11.719,38.086,36.621,65.430
1532385365.845,32.227,15.137,30.273,27.344,116.699
1532385365.849,17.578,31.250,28.320,20.508,51.270
1532385365.853,13.672,36.621,24.902,18.066,-32.715
1532385365.857,16.602,23.926,19.043,17.578,3.906
1532385365.861,24.902,26.855,25.391,24.414,83.984
1532385365.865,26.367,35.156,29.297,22.461,47.852
1532385365.868,24.414,41.016,31.250,27.344,-9.277
1532385365.872,28.320,28.809,33.203,32.715,24.414
1532385365.876,30.762,5.859,30.273,32.227,77.148
1532385365.880,45.898,24.414,27.344,33.691,62.500
1532385365.884,47.852,49.805,31.738,36.133,9.277
1532385365.888,24.902,40.039,38.086,31.738,-14.648
1532385365.892,24.902,27.832,32.715,21.973,73.730
1532385365.896,32.227,37.109,26.367,23.438,90.820
1532385365.900,33.203,39.062,26.855,27.832,-5.371
1532385365.904,36.133,35.156,34.180,31.250,-41.504
1532385365.907,38.086,24.414,31.250,33.203,62.500
1532385365.911,41.504,9.766,30.762,24.902,118.652
1532385365.915,40.039,12.695,37.598,23.926,38.574
1532385365.919,31.738,25.391,35.645,28.320,-24.902
1532385365.923,24.414,43.457,30.762,29.297,26.855
1532385365.927,31.250,50.781,37.109,35.645,107.910
1532385365.931,42.480,28.809,45.898,32.227,62.988
1532385365.935,36.621,16.602,38.574,26.367,-16.113
1532385365.939,36.621,27.832,35.645,31.738,4.395
1532385365.943,36.621,29.785,32.227,32.227,76.660
1532385365.947,33.203,23.926,20.996,27.344,89.355
1532385365.950,27.344,16.113,22.461,23.438,-14.160
1532385365.954,31.250,24.902,27.344,22.461,-64.453
1532385365.958,32.227,40.039,24.414,26.367,47.363
1532385365.962,26.367,33.691,32.227,28.809,104.004
1532385365.966,35.645,35.645,37.109,30.273,39.062
1532385365.970,40.527,32.227,31.738,32.227,-30.762
1532385365.974,52.246,24.902,42.480,45.898,19.531
1532385365.978,51.758,35.645,47.852,46.387,95.215
1532385365.982,32.227,34.668,36.133,35.156,41.992
1532385365.986,30.273,21.484,32.715,34.668,-17.578
1532385365.990,26.855,14.160,29.297,29.297,1.953
1532385365.993,31.738,20.508,27.832,21.973,58.594
1532385365.997,35.645,38.574,31.738,22.461,78.613
1532385366.001,28.320,39.551,34.180,27.832,20.020
1532385366.005,34.180,32.227,32.715,25.391,-7.324
1532385366.009,33.203,30.762,25.879,15.137,78.613
1532385366.013,33.203,36.621,30.273,23.438,115.723
1532385366.017,33.691,25.879,35.645,32.715,43.457
1532385366.021,20.508,6.836,26.367,21.484,-17.578
1532385366.025,22.461,29.785,29.785,18.555,48.340
1532385366.029,28.320,43.945,34.180,22.461,91.309
1532385366.032,32.227,38.086,33.203,23.438,8.301
1532385366.036,34.668,27.344,30.762,22.461,-49.805
1532385366.040,40.527,20.508,34.180,32.227,-19.043
1532385366.044,41.016,35.156,41.016,34.668,55.176
1532385366.048,40.527,27.832,39.551,29.297,62.500
1532385366.052,42.969,18.066,33.203,32.227,-29.785
1532385366.056,42.480,34.180,33.203,33.691,-24.414
1532385366.060,54.199,43.457,36.621,43.945,61.523
1532385366.064,46.387,41.016,29.297,40.527,80.078
1532385366.068,31.250,38.086,27.832,25.391,4.883
1532385366.072,36.621,27.344,35.156,22.461,-44.922
1532385366.075,39.551,20.020,36.133,24.414,44.434
1532385366.079,37.109,26.367,36.621,25.879,84.961
1532385366.083,32.227,15.625,36.133,28.809,4.883
1532385366.087,26.855,23.438,27.344,27.344,-26.367
1532385366.091,33.691,44.434,32.227,24.414,27.344
1532385366.095,42.480,43.457,45.410,30.762,82.520
1532385366.099,39.551,34.668,41.016,31.250,51.758
1532385366.103,30.762,33.691,31.738,23.926,-40.527
1532385366.107,30.273,30.762,35.645,26.855,3.906
1532385366.111,36.133,25.391,34.668,30.273,89.844
1532385366.115,34.668,21.484,31.250,31.250,32.715
1532385366.118,33.203,11.719,31.250,30.762,-42.480
1532385366.122,30.762,24.414,23.926,26.367,-37.598
1532385366.126,29.297,38.086,22.461,26.855,64.453
1532385366.130,29.785,30.273,29.785,27.832,83.008
1532385366.134,31.250,33.691,39.062,27.344,-14.160
1532385366.138,41.504,42.969,46.875,37.109,-25.391
1532385366.142,32.227,33.203,39.062,36.133,77.637
1532385366.146,21.973,23.926,29.297,29.785,107.422
1532385366.150,33.691,27.832,28.320,30.273,13.184
1532385366.154,30.273,21.484,33.203,34.668,-30.762
1532385366.157,25.879,15.625,36.133,38.086,38.086
1532385366.161,35.156,33.691,36.621,36.133,87.402
1532385366.165,33.203,43.457,28.809,35.645,20.508
1532385366.169,32.715,42.480,22.461,36.621,-38.574
1532385366.173,37.598,38.574,25.879,33.691,-9.277
1532385366.177,40.527,21.973,33.203,30.762,83.984
1532385366.181,34.668,11.719,40.527,29.297,61.523
1532385366.185,39.062,22.461,39.551,31.250,-35.156
1532385366.189,45.410,22.461,35.645,36.133,0.977
1532385366.193,41.016,19.043,26.855,22.949,51.270
1532385366.197,29.785,41.992,23.438,15.137,65.918
1532385366.200,29.297,43.945,25.391,26.367,13.184
1532385366.204,30.762,31.250,27.344,24.902,-37.598
1532385366.208,25.391,27.344,24.902,20.996,71.777
1532385366.212,34.668,19.531,20.508,24.414,92.773
1532385366.216,37.598,11.230,19.531,23.438,-1.465
1532385366.220,35.645,29.297,19.531,27.344,-47.852
1532385366.224,28.809,44.922,14.648,30.273,-18.066
1532385366.228,35.156,34.180,14.160,35.645,65.918
1532385366.232,39.062,14.160,18.555,35.645,7.324
1532385366.236,27.344,14.160,23.926,32.227,-76.660
1532385366.239,29.297,30.762,19.531,30.273,-1.465
1532385366.243,29.785,27.344,15.137,25.879,94.238
1532385366.247,20.020,12.207,20.020,22.461,72.754
1532385366.251,15.625,24.902,16.113,17.578,-23.438
1532385366.255,19.531,39.551,5.371,16.113,-30.273
1532385366.259,23.438,30.273,5.371,19.043,70.312
1532385366.263,28.320,21.484,10.254,16.602,92.773
1532385366.267,19.531,16.602,13.184,18.066,-15.625
1532385366.271,16.113,11.230,14.160,16.113,-68.848
1532385366.275,20.508,10.742,3.906,8.301,10.254
1532385366.279,30.762,26.855,4.883,13.672,92.773
1532385366.282,40.039,38.086,10.254,12.695,45.410
1532385366.286,32.227,25.391,5.371,12.207,-7.324
1532385366.290,27.344,10.254,1.953,12.695,16.602
1532385366.294,20.508,18.555,1.465,7.324,79.590
1532385366.298,23.438,40.039,4.395,10.742,54.688
1532385366.302,30.273,37.598,9.277,19.531,-39.062
1532385366.306,29.297,14.648,0.488,16.113,-10.742
1532385366.310,29.297,7.812,-1.465,16.602,87.891
1532385366.314,30.762,12.695,6.836,23.926,76.172
1532385366.318,24.414,16.602,8.301,23.926,-11.230
1532385366.322,31.738,40.527,17.090,29.785,-19.043
1532385366.325,31.250,41.016,16.602,27.832,83.984
1532385366.329,11.230,13.672,8.301,13.672,113.281
1532385366.333,12.207,11.230,5.859,15.137,0.488
1532385366.337,15.625,21.484,6.348,21.973,-43.945
1532385366.341,19.043,27.344,10.254,24.902,42.969
1532385366.345,22.949,17.578,14.648,27.832,93.262
1532385366.349,26.367,-0.488,16.602,26.367,48.340
1532385366.353,31.250,16.113,17.090,27.344,-14.648
1532385366.357,33.203,37.109,18.066,33.691,7.324
1532385366.361,27.832,26.855,14.648,36.133,88.867
1532385366.364,31.250,33.203,14.648,39.062,66.895
1532385366.368,31.250,46.875,24.414,39.062,-44.922
1532385366.372,23.438,33.203,24.902,23.438,-60.059
1532385366.376,19.043,16.113,22.949,17.578,64.453
1532385366.380,15.137,16.113,22.949,28.320,87.402
1532385366.384,17.090,14.648,20.508,27.832,-3.418
1532385366.388,21.484,6.348,17.578,20.508,-20.996
1532385366.392,29.785,16.602,12.695,27.344,42.969
1532385366.396,32.715,28.320,11.719,31.738,57.617
1532385366.400,26.855,28.320,15.137,20.508,-12.207
1532385366.404,16.113,27.832,12.695,14.648,-56.152
1532385366.407,22.461,28.809,16.113,23.926,20.508
1532385366.411,24.414,25.879,27.832,17.090,63.965
1532385366.415,24.414,20.508,31.250,22.461,8.301
1532385366.419,40.527,24.414,31.738,35.645,-26.367
1532385366.423,37.598,26.855,29.785,36.133,3.906
1532385366.427,25.879,23.438,22.461,22.949,106.934
1532385366.431,31.250,16.602,21.973,22.461,68.848
1532385366.435,22.949,11.719,23.926,30.762,-23.438
1532385366.439,16.113,23.438,19.043,22.461,-11.719
1532385366.443,13.184,29.785,17.578,20.020,66.406
1532385366.447,19.531,29.297,20.508,24.902,96.191
1532385366.450,22.949,22.461,22.949,26.367,-20.508
1532385366.454,29.297,18.555,25.879,27.344,-52.734
1532385366.458,40.527,28.320,27.344,34.180,66.406
1532385366.462,34.180,25.879,21.973,35.156,104.004
1532385366.466,25.391,24.902,13.672,27.832,32.227
1532385366.470,27.344,20.508,11.719,17.578,-35.645
1532385366.474,38.574,5.859,18.555,17.578,17.090
1532385366.478,37.598,13.184,22.461,27.344,104.980
1532385366.482,29.297,23.926,13.184,18.066,44.922
1532385366.486,28.809,31.738,14.648,14.648,-39.551
1532385366.489,24.902,36.621,24.414,19.043,-12.207
1532385366.493,29.785,40.039,21.484,23.438,82.520
1532385366.497,42.969,36.133,22.461,29.297,76.172
1532385366.501,50.781,29.785,35.156,31.250,-19.531
1532385366.505,41.992,18.066,27.344,25.879,-31.250
1532385366.509,23.926,0.977,17.090,15.625,45.410
1532385366.513,19.043,17.578,19.043,11.230,52.734
1532385366.517,18.555,38.574,20.508,16.113,-33.203
1532385366.521,22.949,36.621,20.020,18.555,-41.992
1532385366.525,27.344,26.367,14.648,15.137,72.754
1532385366.529,22.949,22.949,9.277,13.184,112.305
1532385366.532,25.879,33.691,12.207,17.578,18.066
1532385366.536,37.598,38.574,26.367,24.902,-42.969
1532385366.540,33.691,29.785,32.715,26.855,9.277
1532385366.544,20.020,19.043,25.391,18.555,126.465
1532385366.548,17.090,16.602,22.949,19.531,93.262
1532385366.552,22.949,24.414,29.785,22.461,-47.852
1532385366.556,22.949,32.227,29.785,22.461,-60.059
1532385366.560,30.273,23.926,26.367,30.762,62.988
1532385366.564,25.391,19.531,24.414,33.203,86.426
1532385366.568,23.926,33.691,20.996,33.691,2.930
1532385366.572,33.691,27.832,24.414,37.109,-20.020
1532385366.575,29.297,15.625,28.809,32.715,55.176
1532385366.579,22.461,22.461,27.344,26.367,94.727
1532385366.583,28.809,30.273,30.273,29.785,26.855
1532385366.587,38.086,36.621,30.762,34.668,-33.203
1532385366.591,27.832,38.086,18.555,28.320,21.484
1532385366.595,20.508,26.367,7.324,18.066,97.656
1532385366.599,24.414,19.043,13.184,17.090,56.152
1532385366.603,27.832,15.137,25.879,20.996,-24.414
1532385366.607,33.691,20.020,26.855,21.484,11.230
1532385366.611,27.832,26.855,29.785,21.484,64.453
1532385366.614,24.414,27.832,22.949,17.578,43.945
1532385366.618,34.180,29.785,17.090,14.648,-12.695
1532385366.622,25.391,37.598,20.996,19.531,-15.625
1532385366.626,20.508,32.715,19.043,24.414,80.566
1532385366.630,25.879,20.996,20.020,20.996,111.816
1532385366.634,20.996,25.879,21.973,21.484,9.766
1532385366.638,21.973,31.738,22.461,21.973,-46.875
1532385366.642,26.855,34.180,22.949,21.973,45.898
1532385366.646,23.926,29.297,17.090,23.438,96.191
1532385366.650,30.762,21.973,20.508,23.926,-17.090
1532385366.654,32.715,17.578,21.973,32.227,-84.961
1532385366.657,31.738,33.691,18.555,36.621,7.324
1532385366.661,30.273,36.133,18.555,20.508,87.402
1532385366.665,31.738,18.555,21.973,24.902,46.387
1532385366.669,42.969,28.809,31.738,34.180,-44.922
1532385366.673,46.387,34.668,27.832,26.855,-27.344
1532385366.677,38.574,22.461,21.484,21.484,79.590
1532385366.681,40.527,22.461,20.020,15.625,69.336
1532385366.685,40.527,29.785,21.484,16.113,-18.555
1532385366.689,36.133,31.738,19.531,21.973,-28.320
1532385366.693,35.156,30.762,13.672,24.414,46.387
1532385366.696,38.574,25.879,15.137,30.273,53.711
1532385366.700,40.527,23.438,33.691,37.598,4.883
1532385366.704,31.250,23.438,36.621,31.738,-4.883
1532385366.708,21.973,21.484,30.762,29.785,49.805
1532385366.712,18.066,31.738,32.715,33.203,88.379
1532385366.716,16.602,31.250,29.785,33.203,6.348
1532385366.720,21.484,13.672,26.367,27.344,-34.668
1532385366.724,24.902,14.648,24.902,30.273,20.996
1532385366.728,34.668,30.762,28.809,36.621,74.219
1532385366.732,29.785,17.578,28.809,30.762,28.809
1532385366.736,17.578,19.531,22.949,26.367,-58.105
1532385366.739,26.367,24.902,27.344,29.785,-8.301
1532385366.743,36.621,27.344,32.227,36.133,86.426
1532385366.747,36.133,37.598,22.949,38.574,66.895
1532385366.751,24.414,23.438,16.602,31.250,-40.527
1532385366.755,10.254,24.902,21.484,22.461,-88.867
1532385366.759,8.301,23.926,25.391,13.672,47.852
1532385366.763,8.789,11.719,21.484,12.207,87.891
1532385366.767,10.254,16.602,18.555,20.020,-9.277
1532385366.771,16.113,26.367,26.367,20.996,-49.805
1532385366.775,17.090,29.297,34.180,19.531,28.809
1532385366.779,19.043,20.020,32.715,23.438,104.492
1532385366.782,21.484,14.648,27.832,28.809,17.090
1532385366.786,30.762,20.508,25.879,31.250,-40.039
1532385366.790,39.551,14.648,28.809,32.715,16.602
1532385366.794,34.180,16.602,28.809,26.367,74.219
1532385366.798,28.320,29.785,21.484,25.879,42.480
1532385366.802,36.133,30.273,16.602,31.250,-32.715
1532385366.806,33.691,24.902,21.484,26.855,-4.883
1532385366.810,22.949,21.973,29.297,16.113,54.199
1532385366.814,31.250,20.508,26.367,16.113,54.688
1532385366.818,39.551,12.207,32.227,26.367,4.395
1532385366.821,23.438,16.113,36.621,25.879,-4.395
1532385366.825,12.695,16.113,26.855,26.367,94.727
1532385366.829,19.043,16.113,24.414,32.227,112.793
1532385366.833,18.066,16.602,33.203,33.691,-7.324
1532385366.837,13.184,8.789,37.598,37.598,-86.426
1532385366.841,19.043,26.855,40.527,39.062,5.371
1532385366.845,17.578,37.598,37.109,42.969,128.418
1532385366.849,9.766,18.066,31.738,39.551,61.523
1532385366.853,6.836,21.973,32.227,30.273,-60.059
1532385366.857,17.578,18.066,28.809,27.344,-2.441
1532385366.861,27.344,-15.137,26.855,26.367,78.125
1532385366.864,29.297,1.953,27.832,29.785,61.035
1532385366.868,33.691,35.156,29.785,28.320,-16.113
1532385366.872,41.992,25.391,31.250,24.414,-23.926
1532385366.876,45.898,26.855,26.855,31.738,50.293
1532385366.880,43.457,44.434,28.320,31.738,57.617
1532385366.884,41.992,42.969,31.738,36.621,-15.625
1532385366.888,38.086,30.273,24.414,39.551,-43.457
1532385366.892,34.668,25.391,31.250,29.297,38.574
1532385366.896,33.691,20.020,37.109,21.973,105.469
1532385366.900,27.344,15.625,39.062,22.949,19.531
1532385366.904,34.180,18.555,34.668,16.602,-52.246
1532385366.907,39.062,19.043,28.809,16.602,35.645
1532385366.911,35.156,19.043,34.668,20.996,81.055
1532385366.915,42.480,28.809,36.133,24.902,33.203
1532385366.919,36.133,39.062,32.227,22.461,-14.160
1532385366.923,26.855,47.363,26.367,9.766,2.930
1532385366.927,29.785,47.852,19.531,13.672,87.402
1532385366.931,43.945,41.992,16.602,25.879,62.012
1532385366.935,46.875,40.527,25.391,29.297,-25.879
1532385366.939,23.926,33.203,31.738,23.438,-1.465
1532385366.943,18.555,26.367,28.809,18.555,80.566
1532385366.946,30.762,24.414,28.809,20.508,75.684
1532385366.950,32.715,12.695,33.691,21.484,-11.719
1532385366.954,26.367,18.066,30.762,19.043,-59.082
1532385366.958,24.414,32.715,19.043,17.578,47.852
1532385366.962,31.738,30.762,15.625,21.973,91.797
1532385366.966,35.645,33.691,27.832,32.227,-0.488
1532385366.970,35.156,41.016,34.668,33.203,-49.316
1532385366.974,29.297,43.945,32.227,24.902,12.207
1532385366.978,28.809,29.297,28.320,27.832,110.840
1532385366.982,26.855,20.508,25.391,30.273,61.523
1532385366.986,15.137,35.156,24.414,19.531,-22.461
1532385366.989,15.625,38.574,23.438,15.625,-9.766
1532385366.993,17.090,25.391,21.973,19.531,54.199
1532385366.997,20.508,10.742,28.809,23.926,63.965
1532385367.001,22.949,27.832,37.109,22.461,0.977
1532385367.005,21.973,35.156,31.250,21.484,-10.254
1532385367.009,22.949,30.273,24.414,23.438,49.316
1532385367.013,13.672,42.480,27.832,16.113,69.824
1532385367.017,16.113,40.039,32.227,18.066,28.320
1532385367.021,13.672,33.691,34.180,24.902,-18.066
1532385367.025,21.484,30.273,34.180,25.391,35.156
1532385367.029,42.969,36.621,32.715,37.109,95.703
1532385367.032,35.156,34.668,28.809,30.273,19.043
1532385367.036,25.879,19.531,27.832,20.996,-43.457
1532385367.040,42.969,18.066,30.762,28.809,12.695
1532385367.044,35.156,21.484,32.715,21.973,91.797
1532385367.048,20.508,29.297,34.180,20.020,58.594
1532385367.052,32.715,37.598,36.133,28.320,-15.137
1532385367.056,36.621,41.992,36.133,26.367,8.301
1532385367.060,34.668,42.480,32.227,24.414,103.027
1532385367.064,30.762,38.086,27.344,24.902,94.238
1532385367.068,30.273,40.527,35.645,21.484,-13.672
1532385367.071,32.227,29.785,37.109,22.949,-42.480
1532385367.075,34.180,8.789,32.227,25.391,44.434
1532385367.079,32.715,28.320,34.180,28.320,102.539
1532385367.083,25.391,33.691,34.180,24.902,31.250
1532385367.087,32.715,20.996,35.156,23.926,-50.293
1532385367.091,29.297,28.320,31.250,17.090,1.465
1532385367.095,19.531,35.645,24.902,18.555,95.703
1532385367.099,25.391,37.109,27.344,26.855,44.434
1532385367.103,30.762,40.039,24.414,23.438,-32.715
1532385367.107,27.344,30.762,25.391,19.531,7.324
1532385367.111,35.156,31.738,40.039,24.902,84.473
1532385367.114,36.133,37.598,40.527,23.926,54.199
1532385367.118,24.902,23.438,27.344,15.137,-27.832
1532385367.122,21.973,29.297,22.949,18.555,-17.090
1532385367.126,39.062,33.203,25.391,17.578,92.285
1532385367.130,34.180,23.926,27.832,20.020,106.934
1532385367.134,21.484,34.180,29.785,21.973,17.578
1532385367.138,33.203,39.062,34.668,22.461,-28.809
1532385367.142,41.016,28.809,34.668,25.879,22.949
1532385367.146,33.691,28.320,31.250,19.531,95.215
1532385367.150,25.879,39.062,29.785,11.719,52.734
1532385367.153,34.668,35.645,31.738,19.531,-39.551
1532385367.157,44.434,27.344,32.715,25.879,14.160
1532385367.161,42.969,33.203,25.879,23.438,99.609
1532385367.165,36.621,33.203,19.043,19.531,41.992
1532385367.169,31.738,33.203,24.414,18.555,-54.688
1532385367.173,36.133,32.715,29.297,23.438,-49.316
1532385367.177,42.480,24.414,32.227,22.949,63.477
1532385367.181,40.039,28.809,34.180,24.902,78.125
1532385367.185,41.992,38.086,33.691,32.715,-28.320
1532385367.189,41.504,33.691,31.250,40.039,-46.387
1532385367.193,30.762,27.344,32.227,31.738,43.945
1532385367.196,27.832,37.109,44.922,23.438,85.449
1532385367.200,37.109,28.809,51.270,30.273,28.809
1532385367.204,32.227,8.301,34.180,24.902,-39.062
1532385367.208,29.297,20.508,27.832,22.461,25.879
1532385367.212,31.738,47.852,37.598,26.855,81.055
1532385367.216,31.250,55.176,43.457,36.133,23.926
1532385367.220,30.273,44.922,38.086,33.691,-39.551
1532385367.224,35.156,41.016,36.621,24.902,-1.465
1532385367.228,32.227,38.086,39.551,29.785,92.773
1532385367.232,30.273,27.832,33.691,25.391,62.012
1532385367.236,39.062,25.391,35.645,33.691,-14.648
1532385367.239,44.922,34.180,39.551,40.039,5.859
1532385367.243,41.504,25.391,37.598,24.414,86.426
1532385367.247,37.109,25.879,39.062,21.484,75.195
1532385367.251,46.387,39.062,34.668,26.367,-27.344
1532385367.255,33.203,42.969,36.621,20.996,-37.109
1532385367.259,23.438,44.922,39.062,16.602,79.102
1532385367.263,34.180,35.156,42.480,23.926,101.562
1532385367.267,34.668,29.785,48.828,27.832,0.977
1532385367.271,34.180,30.273,47.363,17.578,-41.992
1532385367.275,34.668,28.809,46.387,18.555,34.668
1532385367.278,37.598,42.969,49.805,35.156,97.168
1532385367.282,31.738,36.621,41.504,27.832,32.227
1532385367.286,33.203,20.020,27.832,20.020,-35.645
1532385367.290,25.879,32.715,28.809,20.996,19.043
1532385367.294,16.602,30.762,41.992,24.414,111.816
1532385367.298,25.879,9.766,50.293,32.715,82.520
1532385367.302,33.203,14.160,51.758,36.621,-8.301
1532385367.306,31.250,35.645,42.969,31.738,8.789
1532385367.310,30.762,42.480,43.457,30.273,102.539
1532385367.314,34.180,46.387,47.852,31.738,79.590
1532385367.318,32.227,45.410,39.551,27.344,-6.348
1532385367.321,32.227,37.109,38.574,32.227,-36.621
1532385367.325,27.344,14.160,35.156,30.273,37.598
1532385367.329,17.578,14.160,29.785,16.113,96.680
1532385367.333,21.973,47.852,32.227,19.531,31.250
1532385367.337,25.391,46.875,36.133,22.461,-33.203
1532385367.341,20.508,27.344,43.945,22.949,19.043
1532385367.345,14.160,27.832,40.039,27.832,103.027
1532385367.349,23.438,39.062,29.785,29.785,62.988
1532385367.353,33.691,32.715,36.133,25.879,-26.367
1532385367.357,38.574,39.062,49.805,32.227,-4.395
1532385367.361,34.180,45.410,48.340,34.180,104.492
1532385367.364,25.391,18.555,31.250,15.625,79.102
1532385367.368,25.879,14.648,29.785,11.230,-62.500
1532385367.372,27.832,43.457,37.598,18.066,-42.480
1532385367.376,26.855,52.734,42.480,22.949,91.797
1532385367.380,28.320,40.527,43.945,25.879,84.473
1532385367.384,31.250,25.391,41.016,25.391,13.184
1532385367.388,29.297,28.320,40.527,23.438,-13.184
1532385367.392,29.297,23.926,45.898,29.785,44.922
1532385367.396,42.480,16.602,48.828,39.062,107.910
1532385367.400,44.922,31.738,47.363,38.574,27.344
1532385367.403,25.391,25.391,35.645,19.043,-45.410
1532385367.407,20.020,32.227,33.691,12.695,20.020
1532385367.411,21.484,50.293,38.574,23.438,71.777
1532385367.415,18.555,44.922,37.598,20.996,33.691
1532385367.419,26.855,36.621,42.969,24.902,-6.348
1532385367.423,36.621,29.785,48.340,28.320,1.465
1532385367.427,43.945,30.273,46.387,27.344,72.754
1532385367.431,36.621,28.809,41.992,25.879,43.945
1532385367.435,33.691,23.438,41.504,24.902,-53.223
1532385367.439,45.898,27.344,40.527,30.762,-20.996
1532385367.443,47.852,33.691,42.969,29.785,81.543
1532385367.446,59.082,40.527,45.410,36.133,126.953
1532385367.450,51.758,35.645,30.762,29.785,28.809
1532385367.454,32.715,33.203,17.578,21.484,-62.500
1532385367.458,30.762,41.504,26.855,22.949,59.082
1532385367.462,23.926,35.645,43.457,18.066,111.328
1532385367.466,24.414,33.691,47.852,20.508,9.277
1532385367.470,21.484,27.832,45.898,19.043,-52.246
1532385367.474,13.184,14.648,44.434,21.484,8.301
1532385367.478,17.090,27.832,36.133,24.414,113.281
1532385367.482,34.180,38.574,37.109,29.297,73.730
1532385367.485,41.016,31.738,34.180,42.480,-16.113
1532385367.489,32.715,23.438,14.160,33.691,0.000
1532385367.493,26.367,27.832,13.672,22.949,75.684
1532385367.497,37.598,34.668,25.391,30.762,87.891
1532385367.501,42.969,37.598,23.926,42.969,-10.742
1532385367.505,33.691,36.133,17.090,41.016,-36.133
1532385367.509,27.344,35.156,21.973,32.227,76.660
1532385367.513,19.531,37.109,24.902,33.203,102.051
1532385367.517,24.414,28.320,21.973,39.551,-4.395
1532385367.521,23.438,15.625,15.137,34.668,-58.105
1532385367.525,31.738,12.695,22.949,35.645,54.199
1532385367.528,44.434,22.461,40.527,47.852,123.535
1532385367.532,33.203,35.156,31.250,38.086,27.832
1532385367.536,25.391,40.039,17.578,27.832,-33.203
1532385367.540,29.297,46.387,14.648,30.762,27.344
1532385367.544,31.738,48.828,11.230,38.086,121.582
1532385367.548,33.691,40.039,11.719,39.551,62.500
1532385367.552,42.969,41.016,11.719,36.621,-46.875
1532385367.556,49.316,26.367,10.254,36.133,-32.227
1532385367.560,47.852,0.488,9.277,42.480,66.406
1532385367.564,52.246,21.484,3.906,40.039,93.750
1532385367.568,46.387,54.688,1.953,33.203,-1.465
1532385367.571,43.945,60.059,6.348,35.156,-33.203
1532385367.575,41.504,46.387,7.812,23.926,62.988
1532385367.579,38.086,33.203,8.301,16.602,83.984
1532385367.583,36.133,28.809,2.930,9.766,8.789
1532385367.587,35.645,20.508,1.953,14.160,-32.227
1532385367.591,37.598,31.738,8.789,13.184,-3.906
1532385367.595,41.992,41.504,6.836,0.488,63.477
1532385367.599,55.664,36.621,7.812,17.578,50.781
1532385367.603,48.828,48.828,12.207,26.367,-30.762
1532385367.607,41.016,50.781,8.301,30.762,12.695
1532385367.610,35.156,37.109,0.488,37.598,88.379
1532385367.614,33.203,33.203,3.906,43.945,68.848
1532385367.618,35.645,36.621,14.648,53.223,9.766
1532385367.622,28.320,28.320,18.066,41.016,-18.066
1532385367.626,23.438,14.160,21.484,35.645,53.223
1532385367.630,23.438,20.996,20.508,42.480,83.984
1532385367.634,26.855,33.203,15.625,28.809,-12.207
1532385367.638,16.602,36.621,15.625,20.020,-59.082
1532385367.642,12.695,34.668,17.090,24.902,41.992
1532385367.646,11.719,32.227,14.648,19.043,106.934
1532385367.650,11.230,33.203,15.137,15.625,48.340
1532385367.653,23.926,39.062,16.113,26.855,-24.902
1532385367.657,38.086,41.016,11.719,25.879,15.137
1532385367.661,36.133,29.785,2.441,22.949,89.355
1532385367.665,39.551,30.762,-0.977,24.902,66.406
1532385367.669,37.598,36.621,10.254,22.949,-20.508
1532385367.673,30.762,32.715,19.531,29.785,-12.207
1532385367.677,43.945,42.480,18.066,35.645,88.379
1532385367.681,43.457,43.945,20.020,35.156,73.242
1532385367.685,36.133,31.738,22.461,31.250,-14.648
1532385367.689,34.668,41.016,18.066,29.297,-17.090
1532385367.693,32.715,42.480,18.066,29.297,32.227
1532385367.696,33.691,36.621,19.043,24.902,71.777
1532385367.700,34.668,26.367,21.484,26.367,7.812
1532385367.704,33.691,25.391,25.879,30.762,-31.738
1532385367.708,39.551,40.039,28.320,37.598,76.660
1532385367.712,41.016,37.109,29.785,30.762,128.418
1532385367.716,29.785,31.738,23.926,20.508,47.363
1532385367.720,31.250,23.438,17.090,23.438,-42.480
1532385367.724,32.227,20.020,10.254,27.832,7.812
1532385367.728,17.578,34.668,12.207,28.320,104.004
1532385367.732,20.020,40.527,22.949,28.320,53.223
1532385367.735,24.902,30.273,28.320,32.227,-33.203
1532385367.739,24.414,26.855,29.785,38.086,-25.879
1532385367.743,26.367,21.484,20.508,28.320,63.965
1532385367.747,33.203,21.973,22.949,24.414,97.168
1532385367.751,36.133,52.734,38.086,25.879,-23.438
1532385367.755,22.461,51.758,35.156,14.648,-75.195
1532385367.759,25.391,23.926,24.414,15.137,39.551
1532385367.763,23.926,21.484,19.043,16.602,79.102
1532385367.767,13.672,30.273,12.207,16.113,13.184
1532385367.771,16.113,27.832,6.836,14.160,-41.016
1532385367.775,22.949,20.508,11.230,16.113,8.789
1532385367.778,31.738,15.625,13.184,20.996,94.238
1532385367.782,32.715,25.879,17.090,17.578,28.809
1532385367.786,27.344,46.387,19.531,13.184,-39.062
1532385367.790,38.086,55.176,17.090,19.043,21.484
1532385367.794,44.922,46.387,18.066,22.461,97.168
1532385367.798,27.344,21.484,20.996,13.672,44.434
1532385367.802,20.996,16.602,23.926,10.742,-28.320
1532385367.806,20.996,29.297,17.090,14.160,8.301
1532385367.810,15.137,26.855,12.207,9.277,64.453
1532385367.814,19.043,15.137,19.043,8.789,68.359
1532385367.818,36.621,16.602,22.461,18.066,19.531
1532385367.821,33.691,35.156,20.508,23.438,-7.324
1532385367.825,24.902,45.410,15.625,26.855,67.383
1532385367.829,35.645,29.785,19.531,23.926,104.492
1532385367.833,38.574,25.391,20.020,19.531,13.184
1532385367.837,27.344,28.809,14.160,20.020,-31.738
1532385367.841,18.555,21.484,12.207,15.137,13.184
1532385367.845,18.555,26.367,12.695,16.602,80.078
1532385367.849,27.344,27.344,25.391,27.832,41.504
1532385367.853,35.156,22.461,35.156,33.203,-27.832
1532385367.857,28.320,14.160,32.715,33.203,0.000
1532385367.860,24.414,23.438,25.879,31.250,66.895
1532385367.864,35.156,37.109,20.020,29.297,54.688
1532385367.868,34.668,23.926,17.578,21.973,-9.277
1532385367.872,32.227,21.973,20.020,20.996,-15.137
1532385367.876,38.086,41.504,21.484,26.855,68.848
1532385367.880,23.926,44.434,11.719,20.996,84.473
1532385367.884,14.160,36.621,2.930,15.137,7.812
1532385367.888,21.973,14.160,15.625,18.555,-21.484
1532385367.892,29.297,7.324,26.367,15.625,20.996
1532385367.896,25.879,21.973,25.879,13.672,92.773
1532385367.900,30.762,28.320,25.879,14.160,38.086
1532385367.903,22.461,33.203,22.461,12.695,-31.738
1532385367.907,18.066,48.828,15.625,16.113,40.039
1532385367.911,17.578,47.363,16.602,7.812,100.586
1532385367.915,15.625,39.062,22.461,3.418,37.598
1532385367.919,18.555,31.738,22.461,9.766,-13.672
1532385367.923,31.738,22.949,22.461,24.414,14.648
1532385367.927,30.762,28.809,20.508,21.484,93.750
1532385367.931,19.043,37.109,14.648,10.254,69.824
1532385367.935,21.484,45.410,13.184,19.043,-35.645
1532385367.939,22.461,43.457,10.254,22.461,-25.391
1532385367.942,24.414,27.344,13.184,20.996,70.312
1532385367.946,23.438,24.414,19.531,18.066,105.957
1532385367.950,14.648,35.156,20.996,16.602,7.812
1532385367.954,16.602,33.691,23.926,20.996,-69.824
1532385367.958,24.902,23.438,20.996,25.391,2.930
1532385367.962,27.832,26.367,26.367,24.414,84.961
1532385367.966,39.551,31.738,29.297,32.227,39.551
1532385367.970,29.297,37.598,21.484,32.227,-33.691
1532385367.974,14.648,40.527,19.531,20.508,-14.648
1532385367.978,20.508,38.086,20.508,23.926,75.195
1532385367.982,25.879,37.598,20.508,20.508,80.078
1532385367.985,31.738,35.156,14.160,19.531,7.324
1532385367.989,34.668,18.555,18.555,28.320,-0.977
1532385367.993,27.832,20.020,30.273,28.320,91.309
1532385367.997,22.949,31.738,36.621,26.855,100.098
1532385368.001,24.902,31.738,36.621,23.438,3.418
1532385368.005,22.461,42.480,30.273,19.043,-45.898
1532385368.009,25.391,40.527,33.203,22.461,20.996
1532385368.013,42.969,45.898,37.109,28.809,69.824
1532385368.017,37.109,46.875,29.297,28.320,3.906
1532385368.021,17.578,24.414,16.602,20.508,-50.781
1532385368.025,20.020,26.367,14.160,20.020,19.043
1532385368.028,33.203,26.855,24.902,27.344,77.637
1532385368.032,34.180,19.043,30.273,24.902,33.691
1532385368.036,23.926,35.645,24.414,16.113,-7.812
1532385368.040,19.531,57.129,24.414,20.020,17.578
1532385368.044,30.273,56.641,26.367,31.250,90.820
1532385368.048,27.832,42.480,25.879,32.227,57.129
1532385368.052,21.973,34.180,26.855,17.578,-49.316
1532385368.056,31.250,32.715,23.926,22.949,-37.109
1532385368.060,35.645,43.457,25.879,36.133,72.266
1532385368.064,36.133,45.410,19.043,22.461,106.445
1532385368.067,31.250,41.016,15.625,18.066,33.203
1532385368.071,27.344,43.945,21.484,21.484,-15.137
1532385368.075,32.715,31.250,24.902,24.902,68.848
1532385368.079,37.109,32.715,27.832,31.250,112.305
1532385368.083,30.762,51.270,22.461,24.902,33.203
1532385368.087,34.668,44.922,23.438,22.461,-11.230
1532385368.091,41.992,26.367,32.715,27.832,27.344
1532385368.095,40.039,42.969,30.762,28.809,78.613
1532385368.099,46.875,56.152,28.320,32.227,45.410
1532385368.103,51.270,43.945,22.949,27.344,-22.949
1532385368.107,47.363,48.828,13.672,23.438,9.277
1532385368.110,34.180,46.387,9.277,20.996,85.938
1532385368.114,35.645,30.762,12.207,23.438,30.273
1532385368.118,39.062,34.668,20.508,37.109,-22.949
1532385368.122,36.133,35.156,21.973,40.039,2.930
1532385368.126,34.668,29.785,22.949,39.062,77.148
1532385368.130,35.156,29.785,31.250,41.992,67.871
1532385368.134,46.875,19.043,34.668,43.457,-1.953
1532385368.138,41.016,35.156,28.809,40.039,-14.648
1532385368.142,30.273,47.363,20.996,36.621,53.223
1532385368.146,31.250,45.898,19.531,35.645,108.887
1532385368.150,34.668,42.969,26.855,37.109,43.945
1532385368.153,48.828,40.527,32.715,47.852,-30.273
1532385368.157,48.340,41.504,19.531,47.363,28.320
1532385368.161,28.320,38.086,12.207,38.086,103.027
1532385368.165,28.320,38.086,19.531,36.621,48.828
1532385368.169,39.551,36.133,22.461,41.016,-34.668
1532385368.173,41.016,21.973,18.555,30.762,-25.879
1532385368.177,37.598,17.090,17.090,22.461,90.820
1532385368.181,30.273,32.227,16.113,28.320,94.727
1532385368.185,30.273,41.016,21.484,34.180,-6.836
1532385368.189,33.691,37.598,26.855,35.156,-48.340
1532385368.192,35.156,36.621,21.973,27.344,25.879
1532385368.196,35.156,45.410,25.391,29.785,78.613
1532385368.200,39.551,45.898,22.461,36.133,13.672
1532385368.204,36.133,28.320,20.508,30.762,-30.273
1532385368.208,27.344,22.949,18.066,27.344,40.527
1532385368.212,29.297,34.180,9.277,25.879,97.168
1532385368.216,27.832,37.109,11.719,23.438,44.922
1532385368.220,25.879,34.668,22.949,27.832,-16.602
1532385368.224,21.973,26.855,27.344,27.832,14.160
1532385368.228,26.855,30.273,26.367,22.461,100.586
1532385368.232,31.738,46.387,26.855,28.320,66.895
1532385368.235,22.461,41.992,24.414,28.320,-24.902
1532385368.239,15.137,30.273,20.508,16.113,-11.719
1532385368.243,10.742,24.902,16.113,13.184,103.027
1532385368.247,13.672,27.344,16.113,18.066,88.867
1532385368.251,17.090,33.691,20.996,18.066,-12.207
1532385368.255,22.949,40.039,21.973,21.973,-36.133
1532385368.259,28.809,35.645,17.578,20.508,76.172
1532385368.263,24.902,31.250,17.578,11.719,138.672
1532385368.267,28.320,34.668,20.508,19.043,43.945
1532385368.271,34.180,33.691,19.531,26.367,-7.812
1532385368.275,24.414,25.879,16.602,19.043,55.176
1532385368.278,19.043,29.785,20.996,12.207,124.023
1532385368.282,19.043,38.574,20.996,17.090,67.383
1532385368.286,12.207,22.461,14.648,17.578,-0.488
1532385368.290,7.812,25.879,18.066,9.766,5.371
1532385368.294,13.672,38.574,27.344,8.301,50.781
1532385368.298,16.113,27.832,29.297,13.672,74.219
1532385368.302,13.184,20.020,20.508,12.695,12.695
1532385368.306,21.973,25.391,21.484,8.789,3.418
1532385368.310,20.508,29.785,20.508,8.301,73.242
1532385368.314,15.625,39.062,12.207,18.066,112.305
1532385368.317,25.391,47.363,13.184,22.949,57.617
1532385368.321,23.438,28.809,17.578,20.996,-0.977
1532385368.325,21.484,24.902,20.996,24.902,60.059
1532385368.329,30.273,29.297,18.066,17.090,76.660
1532385368.333,26.367,24.414,19.531,12.207,5.371
1532385368.337,23.438,41.992,21.484,18.555,-16.602
1532385368.341,24.902,55.176,13.184,19.043,41.992
1532385368.345,25.879,43.945,14.648,18.066,116.211
1532385368.349,25.391,37.598,13.184,20.020,41.992
1532385368.353,35.645,41.992,7.324,21.484,-56.152
1532385368.357,37.109,42.969,9.766,20.996,-34.180
1532385368.360,31.738,31.250,19.043,21.484,45.410
1532385368.364,35.645,24.902,22.461,23.926,63.965
1532385368.368,42.969,8.789,15.625,33.203,-7.324
1532385368.372,51.270,20.020,15.137,35.645,-11.230
1532385368.376,35.645,53.711,13.184,30.273,63.477
1532385368.380,30.762,56.152,19.531,33.203,87.402
1532385368.384,41.016,59.570,25.879,33.203,25.879
1532385368.388,30.762,52.734,20.020,24.902,-41.992
1532385368.392,25.879,36.621,16.113,17.578,14.648
1532385368.396,26.855,23.926,8.789,15.625,93.262
1532385368.399,25.391,18.555,12.207,17.090,29.297
1532385368.403,30.273,15.137,19.531,20.508,-35.156
1532385368.407,30.762,26.367,19.531,22.949,20.996
1532385368.411,18.555,46.387,15.137,13.184,97.168
1532385368.415,13.184,43.457,19.043,14.648,76.660
1532385368.419,27.832,40.039,19.043,26.855,3.418
1532385368.423,35.156,50.293,22.461,29.785,-1.953
1532385368.427,45.898,44.922,32.227,37.109,71.777
1532385368.431,41.504,33.203,24.414,32.715,72.266
1532385368.435,22.461,28.809,19.531,25.391,-37.598
1532385368.439,24.902,16.602,26.367,27.344,-23.926
1532385368.442,20.020,14.160,19.531,28.809,70.801
1532385368.446,18.066,40.039,12.695,25.391,92.285
1532385368.450,21.484,38.574,16.602,19.531,4.395
1532385368.454,21.973,25.879,19.531,23.438,-43.457
1532385368.458,21.484,38.086,14.648,22.461,44.922
1532385368.462,21.484,36.133,15.137,21.973,118.164
1532385368.466,29.297,30.762,16.113,31.738,72.266
1532385368.470,37.109,30.273,15.137,27.832,-28.320
1532385368.474,34.668,11.719,16.602,23.438,-20.020
1532385368.478,33.203,20.508,14.648,29.785,79.590
1532385368.482,39.062,47.363,12.695,35.645,64.941
1532385368.485,30.762,48.340,13.184,28.809,-24.902
1532385368.489,27.344,28.809,16.113,25.391,-20.508
1532385368.493,30.762,8.301,14.648,31.738,90.332
1532385368.497,27.832,15.625,10.742,29.785,119.141
1532385368.501,23.926,32.715,9.766,25.879,18.555
1532385368.505,27.344,31.738,12.207,26.855,-23.438
1532385368.509,32.227,28.809,7.812,28.809,47.852
1532385368.513,38.574,22.949,3.418,24.414,102.051
1532385368.517,38.574,0.977,1.953,19.531,57.617
1532385368.521,39.062,9.766,0.488,18.555,-37.598
1532385368.524,51.270,41.016,7.812,21.484,11.719
1532385368.528,37.109,25.879,7.324,11.719,118.652
1532385368.532,13.184,3.906,-6.836,-4.883,33.691
1532385368.536,4.883,10.254,-11.719,-6.348,-45.410
1532385368.540,0.000,13.672,-7.812,-1.465,36.133
1532385368.544,4.395,3.906,-7.324,8.789,108.398
1532385368.548,-6.348,-0.488,-11.230,9.277,69.824
1532385368.552,-14.648,2.930,-11.230,6.836,-16.113
1532385368.556,-3.418,7.812,-10.742,12.695,2.441
1532385368.560,-6.348,15.137,-17.578,8.789,96.680
1532385368.564,-7.812,16.113,-22.461,4.395,79.590
1532385368.567,-3.906,2.930,-16.602,4.883,1.465
1532385368.571,4.395,-12.207,-7.324,9.277,-30.762
1532385368.575,17.578,6.348,-0.488,19.043,46.387
1532385368.579,9.766,11.719,-12.207,3.418,103.027
1532385368.583,-7.812,1.465,-32.227,-18.555,40.527
1532385368.587,-12.695,5.371,-38.574,-18.555,0.488
1532385368.591,-1.465,0.000,-27.344,-15.625,25.879
1532385368.595,-16.113,-8.789,-17.578,-18.066,98.633
1532385368.599,-28.320,-6.836,-22.949,-15.625,55.176
1532385368.603,-21.484,0.977,-25.879,-11.719,-2.441
1532385368.607,-12.207,9.766,-22.461,-12.207,34.668
1532385368.610,-0.977,11.719,-18.066,-12.207,102.051
1532385368.614,-5.859,2.930,-20.020,-9.277,91.797
1532385368.618,-8.789,-4.395,-23.438,-7.812,16.113
1532385368.622,-1.465,-11.230,-14.160,-0.977,-8.789
1532385368.626,-1.465,-6.836,-14.648,1.953,82.031
1532385368.630,-8.789,-2.441,-22.461,-15.625,101.074
1532385368.634,-6.348,0.977,-20.996,-14.648,-20.020
1532385368.638,-1.953,-6.348,-19.531,-6.836,-46.875
1532385368.642,3.418,-18.555,-17.578,-6.836,43.945
1532385368.646,0.000,0.488,-22.461,-5.371,109.375
1532385368.649,-5.859,16.602,-23.438,-2.930,38.086
1532385368.653,8.301,10.254,-20.508,1.953,-45.410
1532385368.657,20.996,-7.812,-12.695,11.719,3.906
1532385368.661,23.926,-3.418,1.465,21.973,94.238
1532385368.665,8.789,7.324,-7.324,11.719,85.449
1532385368.669,-1.953,3.418,-22.949,-3.906,0.000
1532385368.673,0.488,4.395,-19.043,-2.930,11.719
1532385368.677,5.371,5.859,-9.277,9.277,100.098
1532385368.681,6.348,13.672,-7.324,13.672,77.148
1532385368.685,8.301,-0.488,-9.277,11.230,5.371
1532385368.689,15.625,-5.859,-12.695,15.625,-30.273
1532385368.692,20.996,8.301,-6.836,15.137,57.129
1532385368.696,10.742,15.137,-5.859,14.648,91.309
1532385368.700,7.812,15.137,-7.324,10.254,11.230
1532385368.704,20.020,-1.465,-6.348,12.207,-16.113
1532385368.708,16.602,-6.348,-16.113,5.859,28.320
1532385368.712,15.137,7.812,-16.602,-2.930,64.453
1532385368.716,9.766,13.672,-9.277,-6.836,4.883
1532385368.720,7.324,6.836,-7.324,-7.324,-44.922
1532385368.724,11.230,13.672,-9.766,-2.441,18.555
1532385368.728,12.207,3.906,-12.207,0.488,103.516
1532385368.732,8.789,-12.207,-6.348,0.488,61.523
1532385368.735,-0.977,1.953,0.000,1.465,-16.602
1532385368.739,3.418,17.090,2.930,17.090,-9.766
1532385368.743,6.348,18.555,4.395,22.949,76.660
1532385368.747,13.184,1.465,1.465,19.043,80.566
1532385368.751,20.996,-3.418,-7.324,18.066,4.395
1532385368.755,14.648,3.906,-12.695,14.648,-33.691
1532385368.759,18.555,3.906,-11.230,18.066,26.367
1532385368.763,28.320,3.418,-11.719,20.996,100.098
1532385368.767,26.367,13.672,-7.812,20.508,28.809
1532385368.771,25.879,18.066,-7.324,4.395,-48.340
1532385368.774,24.902,22.949,-10.254,-8.789,16.602
1532385368.778,26.855,16.113,-10.742,-2.441,97.168
1532385368.782,30.762,16.602,-6.836,1.953,43.945
1532385368.786,35.645,26.367,-7.324,-3.418,-48.828
1532385368.790,17.090,18.555,-12.695,-11.230,-32.715
1532385368.794,11.719,10.254,-17.578,-14.648,63.965
1532385368.798,14.160,14.648,-24.902,-18.555,45.410
1532385368.802,-1.465,12.207,-24.414,-18.066,-41.992
1532385368.806,-1.953,12.207,-15.625,-16.602,-45.410
1532385368.810,-5.859,13.184,-4.883,-16.602,59.082
1532385368.814,-3.906,7.812,-8.789,-16.113,71.289
1532385368.817,-11.230,-6.348,-14.648,-21.484,-34.180
1532385368.821,-15.137,-4.395,-9.766,-22.461,-67.871
1532385368.825,-13.184,6.836,-4.395,-15.137,29.785
1532385368.829,-9.277,-1.465,-0.488,-12.695,97.168
1532385368.833,-8.301,10.742,-3.906,-4.883,9.766
1532385368.837,-0.488,28.809,-5.371,4.395,-61.035
1532385368.841,-0.977,19.043,-7.324,9.766,1.953
1532385368.845,-12.695,4.883,-10.254,6.836,88.379
1532385368.849,-11.230,2.930,-8.301,5.371,48.340
1532385368.853,-8.789,6.348,-10.742,6.836,-53.223
1532385368.856,-5.859,-1.465,-10.742,5.371,-30.273
1532385368.860,-5.371,-17.090,-8.301,10.254,79.102
1532385368.864,-0.977,-4.883,-7.324,13.184,86.914
1532385368.868,4.883,9.766,-6.348,10.742,10.742
1532385368.872,3.906,15.137,-8.301,10.742,-41.992
1532385368.876,-9.277,16.113,-9.766,4.395,45.410
1532385368.880,-15.137,5.371,-11.719,-4.395,126.953
1532385368.884,1.465,1.953,0.000,9.766,53.223
1532385368.888,21.484,7.324,7.324,20.508,-7.324
1532385368.892,7.812,8.301,-4.883,7.324,27.832
1532385368.896,-9.277,3.906,-15.137,0.000,84.473
1532385368.899,-0.977,-4.395,-21.484,0.000,32.715
1532385368.903,0.977,-10.742,-20.020,2.930,-16.602
1532385368.907,3.418,-3.418,-12.695,8.789,52.246
1532385368.911,7.812,6.836,-8.301,7.324,119.141
1532385368.915,10.254,13.184,-8.789,2.930,83.008
1532385368.919,11.719,27.344,-7.324,5.859,-8.301
1532385368.923,5.859,23.926,-5.859,11.719,-5.371
1532385368.927,2.930,12.207,-5.371,9.277,79.102
1532385368.931,2.441,11.230,-3.906,0.000,88.867
1532385368.935,-2.930,8.789,-2.930,-2.930,9.766
1532385368.939,-4.883,7.324,-7.812,-3.906,-25.879
1532385368.942,-4.395,9.277,-10.254,-3.906,38.574
1532385368.946,-4.395,20.020,-1.953,-5.371,83.496
1532385368.950,-2.930,18.555,-5.371,-4.395,32.227
1532385368.954,6.348,16.113,-13.184,-3.418,-28.320
1532385368.958,1.953,22.949,-3.418,-0.977,28.320
1532385368.962,0.000,8.789,4.395,1.953,107.910
1532385368.966,-4.395,-0.488,4.883,0.000,57.129
1532385368.970,-11.230,12.207,-0.488,5.371,-42.480
1532385368.974,7.812,19.531,2.930,20.508,5.371
1532385368.978,9.766,14.648,2.930,18.555,142.090
1532385368.981,0.000,15.137,-12.695,0.488,85.449
1532385368.985,6.836,21.484,-20.020,5.371,-23.926
1532385368.989,14.160,26.367,-20.020,2.930,2.441
1532385368.993,18.066,27.344,-16.602,-3.906,54.199
1532385368.997,23.438,25.391,-17.578,15.625,50.293
1532385369.001,25.879,25.879,-17.578,32.227,1.465
1532385369.005,22.461,11.230,-4.395,24.902,-12.207
1532385369.009,17.578,1.953,7.324,12.695,63.477
1532385369.013,9.277,0.000,9.277,13.672,107.910
1532385369.017,14.160,-3.418,10.254,26.855,55.176
1532385369.021,19.531,7.812,13.672,28.320,-14.160
1532385369.024,14.160,20.508,13.672,17.578,41.016
1532385369.028,1.953,21.973,3.418,15.625,145.020
1532385369.032,1.465,17.090,-4.395,27.344,72.754
1532385369.036,4.883,-7.324,-1.465,21.484,-39.062
1532385369.040,-3.906,-19.531,6.348,18.555,-12.695
1532385369.044,0.000,5.371,11.230,26.367,80.566
1532385369.048,7.324,11.719,6.348,26.367,64.453
1532385369.052,5.859,-0.488,-1.465,30.273,-56.152
1532385369.056,15.625,1.465,9.277,43.457,-47.852
1532385369.060,27.832,11.230,19.531,46.875,77.637
1532385369.064,28.809,6.836,8.301,27.832,102.051
1532385369.067,19.531,5.859,1.953,24.902,23.926
1532385369.071,10.742,9.766,1.465,26.855,-30.762
1532385369.075,21.973,3.906,0.977,27.344,43.945
1532385369.079,24.414,8.301,3.418,25.879,119.141
1532385369.083,20.020,21.973,6.836,24.902,34.180
1532385369.087,23.926,23.438,6.836,28.320,-8.301
1532385369.091,26.855,2.441,4.883,31.738,34.180
1532385369.095,32.715,6.836,4.395,25.391,70.801
1532385369.099,37.598,33.691,2.930,24.414,38.574
1532385369.103,48.828,31.738,0.977,39.062,-27.344
1532385369.106,42.480,15.137,-2.930,40.039,20.996
1532385369.110,25.879,9.766,-2.441,22.949,81.055
1532385369.114,18.555,10.742,-3.418,14.648,64.941
1532385369.118,10.742,20.020,-5.859,10.254,-13.184
1532385369.122,13.184,17.090,1.953,9.277,-46.387
1532385369.126,18.066,8.789,9.766,16.602,50.781
1532385369.130,21.973,19.531,5.859,11.719,67.871
1532385369.134,26.367,19.043,0.488,10.742,-29.785
1532385369.138,14.648,9.766,11.719,14.648,-62.500
1532385369.142,14.160,20.996,18.066,14.648,18.066
1532385369.146,24.902,19.531,11.719,20.996,111.816
1532385369.149,15.137,7.324,2.930,17.578,32.227
1532385369.153,16.602,22.461,0.000,11.719,-42.480
1532385369.157,20.996,31.250,1.953,18.555,16.113
1532385369.161,11.719,21.973,0.000,20.508,100.098
1532385369.165,17.578,20.996,-0.977,17.578,60.059
1532385369.169,31.738,15.137,6.348,18.555,-48.828
1532385369.173,21.484,10.742,8.301,17.578,-26.367
1532385369.177,2.930,19.043,7.324,8.789,90.332
1532385369.181,10.254,20.020,12.207,10.742,76.172
1532385369.185,9.766,11.230,0.488,12.695,-6.348
1532385369.189,11.230,22.461,-1.953,8.789,-7.812
1532385369.192,16.602,29.297,11.719,4.883,46.387
1532385369.196,8.301,13.672,11.230,0.977,89.355
1532385369.200,16.113,19.531,9.277,5.371,38.086
1532385369.204,19.531,26.367,9.766,8.789,-27.832
1532385369.208,18.555,23.926,7.324,9.766,27.832
1532385369.212,18.066,3.418,8.301,12.207,89.844
1532385369.216,17.090,-9.766,10.742,14.160,24.902
1532385369.220,23.438,16.602,4.883,12.695,-47.852
1532385369.224,21.973,29.785,1.465,3.906,0.488
1532385369.228,16.602,29.785,0.000,-2.930,82.031
1532385369.231,15.137,39.062,0.000,-1.953,38.086
1532385369.235,22.461,40.527,11.230,10.254,-41.504
1532385369.239,22.949,33.691,11.719,17.090,-8.301
1532385369.243,13.184,14.160,3.906,9.277,96.191
1532385369.247,10.742,-3.906,10.742,11.230,87.891
1532385369.251,17.090,-4.395,9.766,24.902,-15.137
1532385369.255,23.438,3.418,2.441,25.879,-10.742
1532385369.259,14.648,15.625,6.348,14.160,87.891
1532385369.263,11.719,34.180,10.254,11.230,127.930
1532385369.267,20.508,46.387,1.953,18.066,36.621
1532385369.271,17.578,43.945,1.953,12.695,-35.156
1532385369.274,23.438,34.180,19.043,8.789,3.418
1532385369.278,36.133,27.344,25.879,21.484,82.031
1532385369.282,24.902,17.578,18.066,25.879,40.039
1532385369.286,9.277,12.207,1.465,15.625,-32.715
1532385369.290,9.277,12.207,-0.977,13.672,-9.277
1532385369.294,14.160,10.742,4.883,18.066,81.543
1532385369.298,12.207,19.043,4.395,14.160,83.496
1532385369.302,16.602,36.133,6.836,17.578,-6.348
1532385369.306,14.160,33.691,8.301,18.555,14.160
1532385369.310,13.672,25.879,8.301,14.648,80.566
1532385369.313,26.367,21.484,8.789,19.043,50.781
1532385369.317,22.949,20.508,9.766,22.949,-23.926
1532385369.321,25.879,26.367,12.695,21.973,-20.996
1532385369.325,37.598,31.250,20.508,23.438,76.660
1532385369.329,23.926,25.879,22.949,20.508,92.285
1532385369.333,9.277,17.578,17.090,12.207,-7.324
1532385369.337,20.020,25.391,18.066,20.508,-35.645
1532385369.341,25.391,37.109,20.996,21.973,26.855
1532385369.345,22.949,32.715,13.184,16.602,89.844
1532385369.349,23.438,25.879,14.648,16.602,17.090
1532385369.353,24.902,35.645,24.902,6.348,-64.453
1532385369.356,21.973,33.691,26.367,13.672,-0.488
1532385369.360,16.113,16.113,27.344,21.484,81.055
1532385369.364,18.066,20.508,27.344,18.555,89.355
1532385369.368,19.531,30.762,25.391,10.742,-27.832
1532385369.372,15.137,20.508,24.414,4.395,-45.410
1532385369.376,21.484,27.344,28.809,14.648,88.867
1532385369.380,41.016,41.992,37.598,25.879,91.309
1532385369.384,43.945,29.297,32.715,14.160,9.766
1532385369.388,32.227,16.602,19.531,-0.977,-30.273
1532385369.392,24.902,20.020,17.578,-10.742,20.020
1532385369.396,29.297,14.160,18.555,-7.324,83.496
1532385369.399,35.156,9.277,23.926,6.348,34.668
1532385369.403,26.855,16.602,35.645,10.254,-8.789
1532385369.407,19.043,15.625,37.598,13.672,4.395
1532385369.411,5.859,13.672,40.527,14.648,62.988
1532385369.415,4.395,-3.418,41.992,15.625,46.875
1532385369.419,10.742,-2.930,41.992,23.438,-24.902
1532385369.423,10.742,26.855,45.898,27.832,13.184
1532385369.427,9.766,24.902,44.434,25.391,95.215
1532385369.431,-0.977,11.230,36.621,15.137,81.543
1532385369.435,-0.488,7.324,40.039,9.766,-5.859
1532385369.438,7.812,7.812,44.922,20.996,-20.996
1532385369.442,12.207,13.184,41.992,30.762,78.613
1532385369.446,9.766,14.160,39.062,26.367,120.117
1532385369.450,14.648,20.996,39.062,20.020,40.527
1532385369.454,23.926,6.836,40.527,19.043,-29.297
1532385369.458,25.879,-1.953,40.527,27.832,23.926
1532385369.462,26.367,17.090,36.133,26.855,100.098
1532385369.466,22.461,23.926,38.086,16.113,58.105
1532385369.470,24.902,29.297,48.828,21.484,-35.156
1532385369.474,22.461,20.996,47.363,16.602,-29.297
1532385369.478,16.113,11.719,34.180,8.789,83.008
1532385369.481,7.324,7.812,34.668,0.977,78.613
1532385369.485,3.906,3.418,44.922,0.977,-20.996
1532385369.489,4.395,13.672,46.387,8.789,-29.785
1532385369.493,13.184,23.926,41.016,12.207,68.359
1532385369.497,18.066,20.508,41.016,7.324,117.676
1532385369.501,14.160,15.137,43.457,3.906,10.254
1532385369.505,20.020,8.789,43.945,11.230,-36.621
1532385369.509,18.066,4.883,41.992,11.230,45.898
1532385369.513,9.277,7.812,39.551,7.324,87.402
1532385369.517,15.625,14.160,38.574,11.230,23.926
1532385369.521,17.090,16.113,38.086,17.578,-53.711
1532385369.524,6.836,13.184,33.691,9.766,-1.465
1532385369.528,10.254,22.949,41.504,17.578,100.098
1532385369.532,29.785,18.555,38.086,21.973,42.480
1532385369.536,24.414,-4.395,17.578,12.207,-56.641
1532385369.540,11.719,0.000,22.949,12.207,-3.906
1532385369.544,20.508,-3.418,36.133,7.324,112.305
1532385369.548,13.184,-9.277,38.574,8.789,103.027
1532385369.552,13.672,11.719,40.039,8.301,-3.906
1532385369.556,20.508,15.625,35.156,6.836,-30.762
1532385369.560,12.207,14.160,27.832,3.418,56.152
1532385369.563,16.602,11.719,31.738,5.371,85.449
1532385369.567,25.879,6.836,38.086,22.461,15.625
1532385369.571,25.391,5.371,26.855,16.113,-25.879
1532385369.575,16.113,5.371,21.484,-2.930,49.805
1532385369.579,11.230,-0.977,29.297,2.441,104.492
1532385369.583,15.137,-12.207,29.297,0.000,33.203
1532385369.587,10.742,-12.207,26.855,-9.277,-46.387
1532385369.591,14.160,6.836,27.344,-4.395,-5.859
1532385369.595,17.090,23.926,30.273,-1.953,97.656
1532385369.599,11.719,18.066,36.621,1.465,68.848
1532385369.603,19.043,-7.812,36.621,5.371,-25.879
1532385369.606,28.320,2.930,42.480,14.160,9.766
1532385369.610,25.391,26.855,38.574,14.160,97.656
1532385369.614,19.043,11.230,25.391,8.789,61.523
1532385369.618,18.555,1.465,33.691,13.672,8.301
1532385369.622,15.625,7.324,39.551,8.789,-15.137
1532385369.626,20.508,9.766,36.133,1.465,36.133
1532385369.630,27.344,-4.395,38.574,9.277,87.891
1532385369.634,27.832,-2.930,36.133,2.930,31.250
1532385369.638,25.879,7.812,29.785,-0.977,-1.953
1532385369.642,20.508,15.137,31.250,5.371,38.574
1532385369.646,16.602,15.625,35.645,5.859,84.961
1532385369.649,20.508,12.207,39.062,7.812,9.277
1532385369.653,21.973,9.766,39.551,6.348,-81.055
1532385369.657,25.391,8.301,40.039,9.766,-11.230
1532385369.661,26.855,18.555,38.574,17.090,85.449
1532385369.665,21.484,9.277,33.691,9.766,58.105
1532385369.669,18.555,15.137,30.762,5.371,-32.227
1532385369.673,11.230,21.973,33.203,7.324,-15.625
1532385369.677,3.906,18.555,36.621,5.371,68.848
1532385369.681,8.789,17.090,36.133,8.301,64.941
1532385369.685,15.625,16.113,34.668,11.230,-5.859
1532385369.688,15.137,5.371,36.621,8.301,-46.875
1532385369.692,21.484,-2.441,37.598,7.324,4.883
1532385369.696,18.066,4.883,37.598,8.789,46.875
1532385369.700,16.602,10.254,43.457,21.973,-1.465
1532385369.704,29.785,19.531,42.969,29.785,-28.320
1532385369.708,21.973,19.043,31.738,14.648,38.574
1532385369.712,1.465,11.230,21.973,0.977,59.082
1532385369.716,-0.977,17.578,26.367,-2.441,19.531
1532385369.720,5.859,20.508,41.016,8.789,-33.203
1532385369.724,3.906,8.789,37.598,7.324,-31.738
1532385369.728,8.301,3.418,30.273,2.930,65.430
1532385369.731,13.672,19.043,32.715,13.184,55.176
1532385369.735,9.277,14.648,32.715,16.113,-51.758
1532385369.739,10.254,3.906,36.133,13.672,-44.922
1532385369.743,15.137,18.555,41.504,19.531,67.383
1532385369.747,7.324,21.484,36.621,17.090,81.055
1532385369.751,-1.953,14.160,30.762,3.418,-20.508
1532385369.755,1.465,13.672,31.250,-0.977,-77.637
1532385369.759,10.254,11.230,33.691,9.766,23.438
1532385369.763,14.160,4.395,35.645,14.160,116.211
1532385369.767,13.184,9.277,32.227,12.695,33.203
1532385369.770,16.602,19.531,33.203,7.324,-54.199
1532385369.774,24.414,20.508,40.527,9.766,11.719
1532385369.778,20.996,6.348,41.016,14.160,112.305
1532385369.782,25.879,2.930,36.621,10.742,51.758
1532385369.786,28.809,12.207,34.180,15.137,-45.898
1532385369.790,14.648,18.066,34.668,10.254,-6.348
1532385369.794,16.602,23.926,31.738,3.418,61.035
1532385369.798,10.742,18.066,25.879,1.465,50.293
1532385369.802,9.277,13.672,29.297,7.324,-13.672
1532385369.806,9.766,13.672,29.297,8.789,-19.531
1532385369.810,9.277,20.996,32.227,8.789,70.801
1532385369.813,19.531,15.137,42.969,14.648,88.379
1532385369.817,21.973,5.859,46.387,19.531,9.277
1532385369.821,23.926,0.488,42.480,20.508,-33.203
1532385369.825,18.066,-1.953,41.992,16.602,43.457
1532385369.829,13.672,12.695,45.410,14.648,81.543
1532385369.833,6.836,11.230,41.992,5.859,-7.812
1532385369.837,6.836,18.555,41.016,7.812,-46.875
1532385369.841,12.207,32.715,42.480,16.602,30.273
1532385369.845,11.230,18.555,32.715,15.625,103.027
1532385369.849,17.578,16.113,37.598,21.484,65.430
1532385369.853,18.066,14.160,37.598,10.742,-27.344
1532385369.856,17.578,-11.719,27.832,2.441,-3.418
1532385369.860,23.926,-20.996,32.227,7.812,104.492
1532385369.864,33.691,1.953,31.250,8.301,101.562
1532385369.868,23.926,23.926,28.320,15.137,2.930
1532385369.872,2.441,38.086,38.574,19.531,-14.648
1532385369.876,7.812,37.109,40.527,21.484,72.754
1532385369.880,17.578,33.691,39.062,22.461,119.629
1532385369.884,28.809,37.109,41.504,27.832,26.367
1532385369.888,28.320,23.438,35.156,22.949,-34.668
1532385369.892,12.695,2.441,30.273,6.836,12.695
1532385369.895,20.508,-6.348,31.738,8.789,67.383
1532385369.899,20.508,8.789,34.668,8.789,59.082
1532385369.903,9.766,35.645,32.227,6.348,-19.531
1532385369.907,14.160,43.945,31.738,14.648,-2.930
1532385369.911,13.672,31.738,31.250,15.137,70.801
1532385369.915,15.137,30.762,35.156,10.742,62.012
1532385369.919,21.484,32.227,38.574,13.184,-6.348
1532385369.923,30.273,39.062,35.156,28.320,-13.184
1532385369.927,24.902,34.180,22.461,28.809,82.031
1532385369.931,11.719,17.578,25.391,9.277,63.477
1532385369.935,7.812,25.391,37.109,2.441,-56.641
1532385369.938,12.695,26.367,40.039,14.160,-72.266
1532385369.942,10.742,28.809,35.156,17.090,35.645
1532385369.946,21.973,36.133,34.180,15.625,94.238
1532385369.950,20.996,29.297,31.738,12.207,-9.766
1532385369.954,20.508,33.691,29.297,18.555,-65.918
1532385369.958,33.203,41.016,29.297,27.344,26.855
1532385369.962,29.785,31.738,24.902,20.996,124.512
1532385369.966,43.457,32.715,36.133,33.691,58.594
1532385369.970,37.109,30.273,35.645,30.762,-54.199
1532385369.974,14.648,20.508,23.438,7.812,-47.363
1532385369.978,20.996,34.180,22.461,11.230,50.781
1532385369.981,19.043,38.086,21.973,17.090,46.875
1532385369.985,20.508,28.320,23.926,17.578,-24.414
1532385369.989,23.438,41.992,30.273,14.160,-3.906
1532385369.993,17.578,41.992,38.574,17.090,87.891
1532385369.997,27.832,22.461,34.668,18.066,97.656
1532385370.001,33.691,24.414,30.273,16.602,-1.465
1532385370.005,24.902,33.691,33.691,19.043,-17.578
1532385370.009,19.043,42.969,35.156,17.578,53.711
1532385370.013,23.926,46.387,33.203,17.090,89.844
1532385370.017,27.832,34.668,32.227,18.066,23.438
1532385370.020,32.227,38.086,35.645,25.391,-20.508
1532385370.024,31.250,44.434,32.715,20.508,30.273
1532385370.028,19.043,37.109,27.832,15.137,84.961
1532385370.032,19.043,19.043,33.203,21.484,31.738
1532385370.036,20.508,7.324,27.832,16.602,-35.156
1532385370.040,11.719,34.180,22.949,13.672,4.883
1532385370.044,17.090,45.410,30.762,21.973,102.539
1532385370.048,20.508,32.715,29.297,20.508,95.703
1532385370.052,17.090,34.180,24.414,15.625,-4.883
1532385370.056,29.785,41.504,38.086,20.996,-13.672
1532385370.060,26.855,41.016,44.434,22.949,48.828
1532385370.063,3.418,31.738,40.527,11.230,66.895
1532385370.067,11.230,31.250,36.621,6.348,-10.742
1532385370.071,19.043,38.574,30.762,8.789,-54.688
1532385370.075,13.672,31.250,32.227,9.277,16.602
1532385370.079,20.508,33.691,35.645,15.625,78.125
1532385370.083,34.180,53.223,37.598,18.066,47.852
1532385370.087,36.621,34.668,34.668,20.508,-19.043
1532385370.091,33.691,25.879,33.691,17.578,-1.465
1532385370.095,31.250,37.598,33.203,9.766,74.707
1532385370.099,31.250,29.785,37.598,20.508,40.527
1532385370.102,35.645,34.180,32.715,20.020,-32.715
1532385370.106,20.508,37.109,15.137,1.465,-15.137
1532385370.110,7.812,28.320,13.672,-2.930,68.848
1532385370.114,17.090,35.156,23.438,-2.441,60.059
1532385370.118,15.625,41.016,32.715,0.000,-13.184
1532385370.122,16.113,30.273,34.180,9.766,-45.898
1532385370.126,24.902,23.926,33.203,12.695,49.316
1532385370.130,28.809,23.438,32.227,8.789,95.215
1532385370.134,27.344,25.391,31.738,12.695,-5.859
1532385370.138,25.391,35.645,41.016,16.602,-44.922
1532385370.142,11.230,40.039,40.039,8.789,21.973
1532385370.145,1.953,39.062,31.738,7.324,86.914
1532385370.149,10.742,33.691,32.227,12.207,31.738
1532385370.153,14.648,24.414,33.691,10.742,-25.879
1532385370.157,15.625,36.133,25.391,15.137,16.602
1532385370.161,18.555,31.738,25.879,19.043,85.938
1532385370.165,23.926,11.230,39.551,25.879,92.285
1532385370.169,17.578,25.879,41.504,30.273,-26.855
1532385370.173,21.973,37.598,36.621,29.785,-51.270
1532385370.177,33.691,31.250,37.598,33.691,56.641
1532385370.181,37.598,38.086,42.480,30.762,83.984
1532385370.185,32.227,39.062,37.598,21.973,18.555
1532385370.188,23.438,32.715,33.691,20.508,-29.297
1532385370.192,24.414,35.645,32.715,24.414,27.832
1532385370.196,31.738,36.133,35.645,20.996,85.449
1532385370.200,38.086,29.785,37.109,22.949,26.367
1532385370.204,33.691,35.156,37.598,27.344,-43.457
1532385370.208,33.203,24.902,40.527,24.902,8.301
1532385370.212,34.180,18.555,40.527,20.996,70.312
1532385370.216,29.297,35.645,40.527,27.832,8.789
1532385370.220,26.367,39.062,41.992,35.156,-39.551
1532385370.224,26.855,42.480,40.039,34.180,1.465
1532385370.227,28.809,43.457,31.250,24.902,96.680
1532385370.231,19.531,35.645,29.785,20.996,83.496
1532385370.235,20.020,35.645,39.551,33.691,1.953
1532385370.239,20.508,39.551,44.922,26.367,3.906
1532385370.243,19.531,35.156,44.922,22.949,75.684
1532385370.247,23.926,30.273,45.898,29.297,108.398
1532385370.251,30.273,30.762,42.480,19.531,26.367
1532385370.255,31.738,31.738,36.133,17.578,-42.480
1532385370.259,30.273,36.133,43.945,22.461,28.809
1532385370.263,44.434,33.691,46.387,26.367,115.234
1532385370.267,53.711,36.133,42.480,29.785,68.359
1532385370.270,56.641,37.109,48.828,28.809,-9.277
1532385370.274,59.082,42.480,44.434,26.367,31.738
1532385370.278,48.828,40.527,33.691,23.438,113.281
1532385370.282,36.621,30.273,31.738,22.461,56.152
1532385370.286,30.273,32.715,30.273,23.926,-17.578
1532385370.290,16.602,22.949,30.762,19.043,2.930
1532385370.294,17.090,23.438,38.574,20.996,71.289
1532385370.298,18.555,34.668,39.551,20.020,74.219
1532385370.302,12.695,39.062,34.180,18.555,-12.207
1532385370.306,15.625,39.062,37.109,26.367,-7.324
1532385370.310,20.020,33.203,41.016,24.902,78.613
1532385370.313,26.855,29.785,43.457,27.344,84.961
1532385370.317,30.762,33.691,48.340,34.668,-12.695
1532385370.321,25.391,24.414,36.133,24.414,-44.922
1532385370.325,21.484,2.930,28.320,20.508,47.363
1532385370.329,23.926,1.953,37.598,19.043,76.660
1532385370.333,29.297,17.090,40.039,12.695,20.020
1532385370.337,30.762,15.625,33.203,19.531,-3.418
1532385370.341,28.809,2.441,28.320,22.949,22.461
1532385370.345,37.598,11.230,29.297,28.809,57.617
1532385370.349,37.109,26.367,35.645,28.809,38.086
1532385370.352,39.551,30.762,37.109,26.855,-42.480
1532385370.356,42.969,26.855,39.062,32.715,-48.340
1532385370.360,47.852,21.973,44.434,34.668,56.152
1532385370.364,41.504,20.508,34.180,29.297,85.938
1532385370.368,30.273,8.301,29.297,25.879,10.254
1532385370.372,34.668,11.719,33.203,24.902,-18.555
1532385370.376,34.668,30.762,32.715,30.762,60.547
1532385370.380,41.504,34.668,35.645,39.062,101.562
1532385370.384,44.434,24.902,36.133,41.504,17.578
1532385370.388,34.668,19.531,29.785,35.645,-38.086
1532385370.392,30.762,16.602,20.996,26.855,36.133
1532385370.395,28.809,20.508,21.484,19.531,94.238
1532385370.399,31.250,25.391,38.574,21.973,44.434
1532385370.403,37.598,21.484,42.969,22.461,-29.785
1532385370.407,31.250,29.297,28.809,18.555,10.742
1532385370.411,37.598,23.926,20.996,19.043,83.496
1532385370.415,44.434,5.371,25.879,24.414,60.059
1532385370.419,35.156,15.625,30.762,27.344,-29.297
1532385370.423,36.621,26.855,33.203,23.438,-33.203
1532385370.427,32.715,28.320,32.227,19.531,76.660
1532385370.431,36.133,32.227,27.832,26.367,92.773
1532385370.435,41.504,38.086,35.156,31.738,10.254
1532385370.438,41.992,28.809,37.109,32.715,-41.992
1532385370.442,40.039,13.672,31.738,33.691,34.180
1532385370.446,38.574,11.719,33.203,32.715,105.957
1532385370.450,33.691,23.438,34.668,28.809,24.902
1532385370.454,20.508,34.668,24.902,16.602,-59.082
1532385370.458,20.020,28.809,18.555,19.043,10.254
1532385370.462,25.391,20.508,23.438,24.902,95.215
1532385370.466,31.738,23.926,24.902,25.879,63.965
1532385370.470,30.273,28.809,23.438,26.855,-25.879
1532385370.474,30.273,20.996,26.367,19.531,-28.320
1532385370.477,33.203,8.301,32.715,21.484,72.754
1532385370.481,29.297,2.441,29.297,22.461,77.637
1532385370.485,35.156,21.973,31.250,24.414,-22.949
1532385370.489,40.039,31.250,34.668,30.762,-53.223
1532385370.493,25.879,23.438,19.043,18.066,20.996
1532385370.497,14.160,27.344,13.672,9.277,73.730
1532385370.501,26.367,22.949,20.996,20.996,19.531
1532385370.505,30.762,22.461,25.391,21.973,-22.949
1532385370.509,24.902,26.367,31.250,17.090,19.043
1532385370.513,35.645,7.324,28.320,24.414,77.637
1532385370.517,38.086,6.836,19.043,21.973,41.992
1532385370.520,34.668,21.484,24.902,20.996,-15.137
1532385370.524,32.227,16.113,34.668,19.531,24.414
1532385370.528,40.527,19.531,36.621,21.973,103.027
1532385370.532,48.828,21.973,38.086,29.785,56.152
1532385370.536,34.668,17.578,35.645,28.809,-19.043
1532385370.540,20.996,16.113,27.832,20.020,-10.254
1532385370.544,21.973,9.766,25.879,18.066,66.895
1532385370.548,24.414,2.930,23.926,22.461,85.938
1532385370.552,21.484,1.465,27.344,16.602,-30.762
1532385370.556,23.438,7.812,34.180,15.625,-66.895
1532385370.559,22.949,20.020,32.227,22.949,41.016
1532385370.563,23.926,20.020,23.926,21.484,78.125
1532385370.567,24.902,22.461,25.879,20.996,16.602
1532385370.571,29.785,31.738,29.785,20.020,-26.367
1532385370.575,27.832,19.531,24.414,17.090,19.043
1532385370.579,11.230,0.000,28.320,18.066,92.285
1532385370.583,20.508,9.766,35.645,30.762,45.410
1532385370.587,28.320,25.391,41.016,26.367,-19.531
1532385370.591,17.578,14.648,41.016,12.695,20.508
1532385370.595,23.926,4.395,34.180,14.160,57.617
1532385370.599,23.438,16.113,27.832,15.137,45.898
1532385370.602,23.926,13.672,25.879,31.738,-3.906
1532385370.606,26.855,21.973,24.414,30.762,-18.555
1532385370.610,29.785,32.715,30.762,19.043,64.453
1532385370.614,27.832,28.320,33.691,16.602,72.754
1532385370.618,28.809,34.668,33.691,20.020,8.301
1532385370.622,29.297,23.438,28.809,21.973,-20.020
1532385370.626,25.391,23.926,20.020,22.949,58.594
1532385370.630,31.250,33.203,19.043,25.879,107.422
1532385370.634,22.949,32.715,18.555,20.508,-2.441
1532385370.638,20.996,24.902,22.461,26.367,-40.039
1532385370.642,25.879,17.578,28.320,27.832,45.410
1532385370.645,25.879,24.902,25.391,25.879,112.793
1532385370.649,25.391,23.438,16.113,23.438,63.477
1532385370.653,27.344,22.949,11.230,23.926,-30.273
1532385370.657,23.926,29.297,15.137,24.902,-21.484
1532385370.661,24.414,28.320,27.344,24.902,72.754
1532385370.665,44.922,21.484,38.086,40.039,75.195
1532385370.669,37.598,18.066,31.738,34.180,-13.672
1532385370.673,18.066,37.598,20.996,12.207,-56.641
1532385370.677,19.531,34.668,17.578,7.324,55.176
1532385370.681,17.090,19.531,20.020,6.836,93.262
1532385370.684,25.879,17.090,21.973,17.090,3.906
1532385370.688,23.438,26.367,19.531,16.113,-20.508
1532385370.692,15.137,40.527,19.043,9.277,39.551
1532385370.696,11.230,34.668,14.160,6.836,92.285
1532385370.700,20.996,39.062,21.973,16.113,5.859
1532385370.704,37.109,49.316,35.156,32.227,-71.777
1532385370.708,29.297,32.715,22.461,16.113,-3.906
1532385370.712,20.020,20.996,10.254,7.812,87.891
1532385370.716,17.090,26.367,12.695,16.602,64.453
1532385370.720,29.785,21.973,21.484,21.484,-38.574
1532385370.724,32.715,20.996,25.879,22.949,-22.461
1532385370.727,21.484,20.996,20.996,18.066,77.148
1532385370.731,27.832,24.414,23.926,13.184,37.109
1532385370.735,30.762,31.250,21.484,8.301,-54.199
1532385370.739,28.809,27.344,17.578,7.812,-35.645
1532385370.743,41.016,27.344,22.949,24.902,62.500
1532385370.747,38.086,27.832,22.949,28.320,83.984
1532385370.751,42.480,24.414,29.297,22.461,-19.043
1532385370.755,55.664,26.367,37.109,38.086,-48.828
1532385370.759,44.434,21.973,21.484,32.227,41.992
1532385370.763,29.785,14.648,14.160,13.672,88.867
1532385370.767,31.250,14.160,26.855,21.484,21.484
1532385370.770,33.691,24.414,33.691,31.250,-77.637
1532385370.774,33.691,27.832,29.297,22.949,-40.039
1532385370.778,33.203,23.926,27.832,19.531,74.219
1532385370.782,25.879,32.715,25.879,13.672,45.898
1532385370.786,20.508,28.320,26.367,8.301,-21.484
1532385370.790,20.020,22.461,29.785,19.043,-1.465
1532385370.794,23.438,24.902,24.902,21.484,73.730
1532385370.798,39.062,26.367,30.273,22.949,56.641
1532385370.802,46.387,30.273,37.109,33.203,-40.039
1532385370.806,33.691,23.438,28.320,34.668,-44.922
1532385370.809,31.738,30.273,25.391,26.855,37.598
1532385370.813,39.551,38.574,32.715,23.926,61.523
1532385370.817,37.598,34.180,31.250,20.508,-0.488
1532385370.821,28.809,41.016,29.785,20.996,-44.434
1532385370.825,39.551,48.340,35.156,25.391,10.254
1532385370.829,43.945,41.992,37.109,26.855,56.152
1532385370.833,42.480,27.832,34.180,27.832,-18.066
1532385370.837,47.852,30.273,32.227,25.391,-63.477
1532385370.841,47.363,37.598,36.621,26.855,0.488
1532385370.845,45.898,42.969,41.992,32.227,97.656
1532385370.849,38.086,35.645,35.645,28.320,77.148
1532385370.852,32.715,28.809,27.344,17.578,-33.691
1532385370.856,34.180,29.785,35.645,18.066,-31.250
1532385370.860,30.273,34.668,38.574,20.020,77.148
1532385370.864,33.203,39.551,33.203,23.438,98.145
1532385370.868,28.320,29.785,28.320,25.879,6.348
1532385370.872,23.438,20.508,33.203,15.625,-22.461
1532385370.876,28.809,26.855,44.434,20.508,58.105
1532385370.880,22.461,31.250,46.875,28.809,125.000
1532385370.884,23.438,30.273,42.480,28.320,43.457
1532385370.888,32.715,18.555,37.598,31.738,-21.973
1532385370.892,35.156,18.066,38.574,31.250,-4.395
1532385370.895,24.902,28.320,33.203,20.996,60.547
1532385370.899,22.461,30.273,21.484,20.996,49.805
1532385370.903,25.391,19.043,26.367,27.344,-44.922
1532385370.907,20.508,4.395,34.668,18.066,-18.555
1532385370.911,20.508,17.090,35.645,15.137,62.012
1532385370.915,20.020,35.645,34.668,17.090,44.434
1532385370.919,19.531,39.551,30.273,15.625,-10.254
1532385370.923,24.414,36.621,29.785,17.578,-8.789
1532385370.927,34.180,36.621,34.668,25.391,69.824
1532385370.931,36.133,35.645,34.180,27.832,89.844
1532385370.934,28.809,27.832,28.809,23.926,13.672
1532385370.938,30.273,25.879,27.832,20.020,-27.832
1532385370.942,33.203,35.156,37.598,25.391,54.688
1532385370.946,28.809,33.203,40.527,31.738,113.770
1532385370.950,27.832,19.531,35.156,26.855,22.461
1532385370.954,28.809,21.484,42.969,25.879,-66.895
1532385370.958,34.180,34.180,45.410,25.879,-3.418
1532385370.962,32.715,40.527,38.086,20.996,95.703
1532385370.966,29.785,37.109,34.180,26.855,74.707
1532385370.970,42.480,20.996,31.250,29.785,-23.926
1532385370.974,42.480,27.832,36.621,24.902,0.488
1532385370.977,29.785,41.016,40.039,15.137,102.051
1532385370.981,40.039,39.062,41.992,23.438,95.215
1532385370.985,47.363,42.480,37.598,31.250,7.812
1532385370.989,30.762,34.668,27.344,19.043,-1.465
1532385370.993,25.391,27.344,32.715,20.996,75.195
1532385370.997,30.762,33.691,38.574,23.438,102.051
1532385371.001,30.762,32.227,39.062,18.066,33.203
1532385371.005,30.762,25.879,37.598,20.020,-41.992
1532385371.009,23.438,15.625,43.457,27.832,22.949
1532385371.013,25.391,20.508,39.062,27.344,75.195
1532385371.016,26.855,41.992,27.832,18.555,15.137
1532385371.020,21.973,41.992,32.715,19.531,-17.578
1532385371.024,35.645,33.691,35.156,26.855,31.250
1532385371.028,33.203,36.133,28.809,24.902,120.117
1532385371.032,36.133,39.551,30.273,20.508,80.078
1532385371.036,45.898,27.344,33.203,26.367,7.324
1532385371.040,31.738,22.461,20.996,18.555,13.184
1532385371.044,26.367,22.949,20.508,12.695,87.891
1532385371.048,32.715,19.531,29.297,13.184,81.055
1532385371.052,38.086,32.715,29.785,11.230,-13.184
1532385371.056,33.691,31.250,30.762,19.531,-5.371
1532385371.059,26.367,34.180,32.715,22.461,87.402
1532385371.063,22.461,37.109,19.531,11.719,107.910
1532385371.067,23.926,15.137,8.301,6.836,25.879
1532385371.071,40.039,14.160,16.602,19.043,-62.012
1532385371.075,53.223,24.414,21.973,36.621,22.461
1532385371.079,36.133,15.625,23.438,34.180,123.047
1532385371.083,10.254,21.484,30.762,20.996,50.781
1532385371.087,15.625,33.691,32.227,19.531,-27.832
1532385371.091,22.461,30.762,40.527,25.391,3.906
1532385371.095,15.137,25.391,43.457,20.020,78.613
1532385371.099,19.531,17.578,33.691,17.578,65.918
1532385371.102,24.414,11.719,27.832,15.625,-9.766
1532385371.106,30.273,14.648,31.738,20.020,-0.488
1532385371.110,38.574,18.066,35.156,22.949,86.914
1532385371.114,35.156,19.531,40.527,15.137,70.312
1532385371.118,40.527,18.066,43.457,15.625,-1.465
1532385371.122,34.668,11.230,30.273,8.789,2.930
1532385371.126,29.785,20.508,24.414,13.672,93.262
1532385371.130,31.738,29.297,28.809,24.414,99.121
1532385371.134,26.367,24.414,30.273,29.297,11.230
1532385371.138,27.832,11.230,33.203,35.156,-1.953
1532385371.141,40.039,4.395,37.598,36.133,35.156
1532385371.145,34.180,20.020,41.504,38.574,54.688
1532385371.149,18.555,36.133,40.527,41.016,16.602
1532385371.153,21.484,34.668,38.086,38.574,-54.688
1532385371.157,24.414,30.273,38.086,36.133,2.441
1532385371.161,25.391,22.949,31.738,32.715,101.074
1532385371.165,26.367,21.973,28.320,27.344,70.801
1532385371.169,18.555,18.066,26.367,24.414,-8.789
1532385371.173,18.555,14.648,26.367,20.508,-18.555
1532385371.177,26.367,12.695,32.227,21.484,72.754
1532385371.181,19.531,19.531,33.691,22.949,102.051
1532385371.184,13.672,41.016,35.645,13.184,21.973
1532385371.188,17.090,41.016,34.668,11.719,4.883
1532385371.192,22.949,25.391,35.156,23.926,49.316
1532385371.196,26.367,27.832,38.574,20.508,67.871
1532385371.200,32.715,28.809,38.574,23.438,39.062
1532385371.204,45.410,27.344,38.574,34.180,-11.230
1532385371.208,51.758,14.648,41.504,44.434,42.969
1532385371.212,36.133,1.465,38.086,40.039,130.371
1532385371.216,18.066,25.391,31.250,19.531,74.219
1532385371.220,16.602,37.109,30.762,11.230,-26.367
1532385371.224,7.812,31.738,29.297,13.184,4.395
1532385371.227,15.625,28.809,37.109,20.020,110.352
1532385371.231,31.250,33.691,42.480,21.973,81.055
1532385371.235,25.391,26.367,38.086,22.461,-29.297
1532385371.239,25.391,14.160,36.621,29.297,-42.969
1532385371.243,41.992,15.625,41.992,37.109,36.133
1532385371.247,48.828,11.719,46.387,35.156,79.590
1532385371.251,42.969,22.461,38.574,27.344,-10.254
1532385371.255,37.109,41.992,31.738,19.531,-80.078
1532385371.259,28.809,39.062,31.250,17.578,5.371
1532385371.263,26.855,39.062,32.227,14.648,99.121
1532385371.266,27.832,33.691,29.785,12.695,59.082
1532385371.270,31.250,21.484,37.598,18.555,-41.504
1532385371.274,34.668,25.391,41.504,20.508,8.301
1532385371.278,29.785,20.996,33.691,20.020,105.957
1532385371.282,27.832,9.277,34.180,22.461,71.289
1532385371.286,37.598,16.113,32.715,28.809,-0.488
1532385371.290,39.062,33.691,35.156,26.367,-6.348
1532385371.294,36.621,37.598,43.457,23.438,51.270
1532385371.298,21.484,20.020,31.738,20.020,55.176
1532385371.302,15.137,12.207,17.578,13.184,-6.348
1532385371.306,24.902,23.438,23.438,20.020,-16.602
1532385371.309,20.996,36.621,34.180,20.508,36.621
1532385371.313,4.883,30.762,34.668,-2.441,72.266
1532385371.317,9.766,13.672,32.715,-2.930,23.438
1532385371.321,24.902,16.602,35.645,12.695,-33.691
1532385371.325,19.531,29.785,33.203,4.395,13.672
1532385371.329,10.254,29.785,29.297,-4.395,82.520
1532385371.333,14.648,22.949,27.344,-2.441,8.301
1532385371.337,22.949,25.391,27.344,5.859,-39.551
1532385371.341,34.668,34.668,34.180,17.578,25.879
1532385371.345,34.180,19.043,37.109,8.789,81.543
1532385371.349,24.902,3.906,33.203,8.789,63.965
1532385371.352,24.902,23.926,24.902,9.766,-2.930
1532385371.356,8.789,39.551,22.949,0.000,-9.277
1532385371.360,5.859,35.156,30.273,9.766,67.871
1532385371.364,29.785,26.367,35.645,16.113,88.867
1532385371.368,38.086,22.461,38.086,17.090,-8.301
1532385371.372,33.691,14.648,36.133,21.484,-38.574
1532385371.376,30.273,13.184,35.156,19.043,53.711
1532385371.380,39.062,28.320,34.180,24.902,92.285
1532385371.384,52.734,40.039,34.668,30.762,17.578
1532385371.388,35.156,40.527,38.574,23.926,-30.273
1532385371.391,18.066,24.902,34.180,14.648,5.371
1532385371.395,22.949,14.160,30.273,14.160,71.777
1532385371.399,20.508,20.020,24.902,15.137,43.457
1532385371.403,19.531,30.273,22.949,18.066,-57.129
1532385371.407,22.949,31.738,32.227,21.973,-31.738
1532385371.411,28.320,11.719,34.180,28.320,81.543
1532385371.415,34.668,4.395,30.273,30.762,86.426
1532385371.419,28.320,31.738,33.203,27.344,4.395
1532385371.423,25.391,44.434,39.551,28.320,-28.320
1532385371.427,30.762,41.016,46.875,37.598,64.941
1532385371.431,20.020,35.645,39.551,23.438,84.961
1532385371.434,12.695,23.926,32.715,7.324,-48.828
1532385371.438,20.508,24.414,31.250,17.578,-75.195
1532385371.442,23.926,34.180,34.180,26.367,31.250
1532385371.446,22.461,30.762,37.109,28.320,120.605
1532385371.450,31.738,12.695,35.156,29.785,48.828
1532385371.454,29.297,16.113,31.250,29.297,-28.320
1532385371.458,23.438,45.410,25.879,29.785,30.762
1532385371.462,18.066,45.410,19.531,15.625,105.469
1532385371.466,6.348,23.926,23.926,-3.418,69.336
1532385371.470,20.996,24.902,37.598,-6.348,-35.645
1532385371.473,27.344,32.227,40.527,2.441,4.395
1532385371.477,21.484,16.602,39.062,15.137,118.652
1532385371.481,22.949,20.508,33.203,14.160,83.008
1532385371.485,26.367,31.738,29.297,9.277,-3.418
1532385371.489,30.762,12.695,36.621,18.066,-9.766
1532385371.493,30.762,25.879,28.320,20.508,63.965
1532385371.497,26.367,46.875,17.090,17.090,95.215
1532385371.501,26.855,38.086,25.879,17.578,21.484
1532385371.505,28.809,23.926,27.832,13.672,-22.949
1532385371.509,35.645,24.414,28.320,21.973,47.852
1532385371.513,40.039,29.785,27.832,27.832,118.164
1532385371.516,27.344,34.180,25.879,21.484,38.574
1532385371.520,15.625,32.227,24.902,19.043,-79.102
1532385371.524,21.973,28.320,20.020,17.578,-19.043
1532385371.528,27.832,26.367,34.180,19.531,90.332
1532385371.532,25.879,22.461,43.945,26.367,30.762
1532385371.536,27.832,18.555,35.645,20.508,-10.254
1532385371.540,27.832,11.230,32.715,14.160,14.648
1532385371.544,26.855,18.555,34.180,15.137,91.309
1532385371.548,26.367,27.832,34.180,19.531,91.797
1532385371.552,31.250,25.391,36.621,24.414,-14.160
1532385371.556,26.367,34.180,32.715,21.484,-21.484
1532385371.559,17.578,36.133,22.949,18.555,64.941
1532385371.563,24.902,27.832,20.508,20.996,93.750
1532385371.567,36.133,12.695,30.273,35.156,27.832
1532385371.571,41.504,6.348,26.367,41.016,-22.461
1532385371.575,27.344,25.879,17.090,30.762,28.320
1532385371.579,23.438,38.086,28.320,27.344,126.465
1532385371.583,30.762,36.133,33.203,28.809,99.121
1532385371.587,28.809,29.297,28.320,27.344,-14.160
1532385371.591,27.832,16.113,28.809,21.484,7.812
1532385371.595,38.086,24.414,40.039,24.414,100.098
1532385371.598,41.992,40.039,39.062,30.762,51.270
1532385371.602,29.297,39.551,26.367,17.578,-14.648
1532385371.606,28.320,31.250,22.461,15.625,2.441
1532385371.610,31.738,25.879,26.367,13.184,72.754
1532385371.614,29.297,28.809,32.715,2.441,82.520
1532385371.618,27.832,17.578,35.156,8.789,7.324
1532385371.622,30.273,18.555,29.785,7.324,-21.484
1532385371.626,28.320,30.762,24.414,12.207,35.156
1532385371.630,25.879,30.273,21.973,21.973,90.820
1532385371.634,22.461,27.832,21.973,17.578,29.785
1532385371.638,25.391,22.461,16.602,22.461,-34.668
1532385371.641,32.227,25.391,17.090,26.855,39.062
1532385371.645,22.461,34.180,19.043,34.180,123.047
1532385371.649,16.113,30.273,12.207,29.297,61.523
1532385371.653,20.508,21.484,3.906,21.973,-25.391
1532385371.657,21.484,20.020,0.000,29.785,-8.789
1532385371.661,21.484,22.461,1.953,33.203,75.195
1532385371.665,27.832,17.090,-6.836,36.133,72.754
1532385371.669,28.809,18.555,-12.207,31.738,-22.949
1532385371.673,30.273,25.879,-6.348,28.320,-53.223
1532385371.677,32.227,29.785,-4.395,28.320,52.734
1532385371.681,32.715,23.926,-5.371,30.273,104.004
1532385371.684,37.109,8.789,-4.395,31.250,21.973
1532385371.688,43.457,15.625,-8.301,33.691,-36.133
1532385371.692,46.875,19.531,-6.836,31.250,36.621
1532385371.696,40.039,4.395,-10.742,22.461,105.957
1532385371.700,27.344,13.184,-18.555,24.414,26.855
1532385371.704,21.484,28.320,-12.695,21.484,-33.203
1532385371.708,36.621,25.391,-9.766,27.344,8.301
1532385371.712,44.434,19.531,-16.113,30.762,62.500
1532385371.716,37.109,24.414,-14.648,24.414,23.438
1532385371.720,34.668,22.949,-8.789,33.203,-60.547
1532385371.723,31.250,23.438,-9.277,33.691,-49.805
1532385371.727,36.133,19.043,-9.766,36.621,63.965
1532385371.731,38.574,12.207,-13.184,34.180,98.633
1532385371.735,36.621,26.367,-10.742,37.109,2.441
1532385371.739,40.527,35.645,-3.906,46.875,-51.758
1532385371.743,35.156,23.926,-13.672,38.086,30.762
1532385371.747,33.203,5.371,-23.926,34.668,62.500
1532385371.751,41.016,7.812,-17.578,40.039,-12.207
1532385371.755,40.527,20.020,-5.371,39.551,-58.105
1532385371.759,30.762,26.367,-5.371,35.645,18.555
1532385371.763,28.809,37.598,-0.977,37.109,100.586
1532385371.766,34.668,37.598,9.277,39.062,50.781
1532385371.770,38.086,21.484,15.137,38.086,-39.551
1532385371.774,41.992,20.020,12.207,36.621,-14.648
1532385371.778,37.109,30.762,9.766,32.715,105.469
1532385371.782,30.762,24.902,10.254,28.809,68.848
1532385371.786,26.367,9.766,16.113,28.809,-29.297
1532385371.790,25.391,12.207,15.137,24.902,1.953
1532385371.794,31.250,32.227,11.230,25.391,99.121
1532385371.798,28.320,32.227,22.461,32.715,101.074
1532385371.802,29.785,25.879,25.879,38.574,0.000
1532385371.806,32.227,28.320,19.531,33.691,-11.230
1532385371.809,43.945,30.762,23.926,29.297,82.520
1532385371.813,43.945,33.203,30.273,28.809,104.492
1532385371.817,31.738,35.645,25.879,32.227,25.391
1532385371.821,36.133,31.738,21.484,31.738,-28.809
1532385371.825,40.527,23.926,23.926,32.715,54.688
1532385371.829,35.645,19.531,31.250,34.668,132.812
1532385371.833,30.762,22.461,29.785,24.414,53.711
1532385371.837,21.484,24.902,27.344,21.484,-30.762
1532385371.841,18.555,29.297,27.832,16.602,-4.395
1532385371.845,15.137,29.297,22.949,8.301,82.520
1532385371.848,13.672,20.020,20.020,11.719,79.590
1532385371.852,24.414,20.020,18.555,14.648,-7.324
1532385371.856,20.020,27.344,16.113,14.648,-21.484
1532385371.860,26.855,15.137,25.391,27.344,65.918
1532385371.864,38.086,15.625,30.762,27.344,83.984
1532385371.868,20.020,33.203,24.414,12.207,6.348
1532385371.872,14.160,34.180,27.832,8.301,-40.039
1532385371.876,27.344,35.156,31.738,12.207,43.945
1532385371.880,25.879,35.645,25.879,18.555,105.957
1532385371.884,20.020,16.602,16.113,9.277,22.949
1532385371.888,20.508,18.555,15.137,3.418,-21.484
1532385371.891,29.785,37.598,17.578,8.301,26.855
1532385371.895,38.086,36.621,17.090,16.602,99.121
1532385371.899,32.227,21.973,16.602,30.762,64.453
1532385371.903,25.391,9.766,27.344,32.715,-37.109
1532385371.907,23.926,6.836,53.223,29.785,-4.395
1532385371.911,25.391,16.113,62.500,28.320,90.332
1532385371.915,5.371,27.832,41.016,6.836,39.551
1532385371.919,-12.207,26.367,28.320,1.465,-29.297
1532385371.923,-1.953,20.508,36.133,14.160,-16.602
1532385371.927,14.160,18.066,45.410,17.090,64.941
1532385371.930,11.230,15.625,41.992,19.531,91.309
1532385371.934,17.578,11.230,34.180,20.020,25.391
1532385371.938,42.480,-1.465,41.504,25.391,-33.203
1532385371.942,50.293,5.859,46.875,30.273,22.461
1532385371.946,41.016,23.926,41.016,13.672,114.258
1532385371.950,39.551,33.691,39.551,0.000,52.246
1532385371.954,44.434,34.668,40.527,-1.465,-37.598
1532385371.958,38.574,29.785,39.062,10.254,1.953
1532385371.962,32.715,25.391,37.598,15.625,77.148
1532385371.966,35.645,24.902,39.551,22.949,40.039
1532385371.970,26.855,19.531,39.551,28.809,-40.527
1532385371.973,18.066,5.859,38.086,29.785,-42.480
1532385371.977,19.043,5.371,42.969,32.227,68.359
1532385371.981,11.230,22.949,43.945,29.785,122.559
1532385371.985,11.230,15.625,44.434,31.250,28.320
1532385371.989,24.902,6.348,50.293,36.621,-25.879
1532385371.993,23.438,19.043,48.340,32.227,54.688
1532385371.997,21.484,22.949,41.504,26.367,101.562
1532385372.001,18.066,14.160,41.504,31.738,30.273
1532385372.005,5.859,15.625,38.574,25.879,-16.113
1532385372.009,11.719,18.066,37.598,17.090,39.551
1532385372.013,23.438,14.648,43.457,21.973,129.883
1532385372.016,28.809,12.695,42.969,26.367,62.988
1532385372.020,33.203,17.578,40.527,29.297,-29.785
1532385372.024,29.785,31.738,46.875,25.391,20.020
1532385372.028,21.973,28.809,44.434,20.508,90.820
1532385372.032,26.855,17.578,39.062,22.461,53.223
1532385372.036,37.598,9.277,43.457,24.902,-13.672
1532385372.040,43.457,20.996,46.875,26.367,-5.859
1532385372.044,41.016,33.691,40.039,20.996,67.871
1532385372.048,34.668,28.320,40.527,26.367,83.984
1532385372.052,31.738,27.344,41.504,22.949,-18.555
1532385372.055,33.203,17.578,38.574,18.066,-47.363
1532385372.059,33.691,15.137,43.945,30.273,51.270
1532385372.063,41.016,33.203,45.898,33.203,100.586
1532385372.067,36.133,41.992,42.480,22.949,60.547
1532385372.071,18.066,33.691,38.574,19.531,-40.039
1532385372.075,14.648,35.645,42.969,17.578,-12.695
1532385372.079,20.996,32.715,44.434,16.602,91.797
1532385372.083,28.809,15.625,38.086,18.066,47.363
1532385372.087,17.090,15.137,38.574,14.160,-7.324
1532385372.091,8.789,33.691,43.945,11.719,3.906
1532385372.095,16.113,38.086,42.969,15.625,63.965
1532385372.098,26.855,28.320,41.504,22.461,76.172
1532385372.102,19.531,22.949,43.457,19.043,1.465
1532385372.106,24.902,15.137,46.387,23.438,-13.672
1532385372.110,32.227,22.949,53.711,38.574,50.781
1532385372.114,29.785,30.273,54.199,35.645,90.332
1532385372.118,34.668,33.203,43.457,25.391,15.625
1532385372.122,24.414,32.715,37.598,20.996,-32.715
1532385372.126,25.391,24.414,38.086,23.926,53.223
1532385372.130,34.668,21.973,36.133,19.043,94.727
1532385372.134,28.320,20.508,40.527,14.648,7.812
1532385372.138,32.227,20.020,44.922,20.508,-37.598
1532385372.141,40.039,26.367,50.293,27.344,14.160
1532385372.145,33.203,32.227,48.340,31.250,83.984
1532385372.149,40.039,25.879,45.410,30.762,41.016
1532385372.153,39.551,34.180,50.781,28.809,-52.246
1532385372.157,25.879,34.180,38.574,17.578,-17.090
1532385372.161,21.484,28.809,27.832,13.184,91.797
1532385372.165,37.109,23.926,33.203,16.602,93.750
1532385372.169,50.293,20.508,42.480,17.090,-11.230
1532385372.173,45.898,22.949,41.992,16.602,-42.969
1532385372.177,34.668,20.508,41.016,15.137,43.945
1532385372.180,33.691,20.020,39.062,18.555,49.805
1532385372.184,36.133,14.648,26.367,12.695,1.465
1532385372.188,28.809,17.578,28.809,10.742,-27.344
1532385372.192,21.484,40.527,41.992,8.789,-9.277
1532385372.196,27.832,48.340,47.363,9.766,54.199
1532385372.200,33.203,40.527,41.504,13.184,39.551
1532385372.204,25.879,30.762,31.738,9.766,-40.527
1532385372.208,20.020,20.996,37.109,12.695,-36.133
1532385372.212,16.602,19.531,37.109,11.719,43.945
1532385372.216,18.555,20.508,31.738,13.672,62.012
1532385372.220,23.438,24.414,33.691,19.043,-18.555
1532385372.223,29.297,22.949,33.691,24.414,-45.410
1532385372.227,29.785,20.508,24.902,20.996,77.148
1532385372.231,21.484,28.320,27.832,17.578,86.426
1532385372.235,18.555,34.180,48.828,20.020,-28.809
1532385372.239,21.484,39.062,53.223,20.020,-43.945
1532385372.243,23.926,30.762,48.828,22.949,49.316
1532385372.247,27.344,21.973,48.340,30.273,96.680
1532385372.251,30.762,33.691,41.016,25.879,-4.883
1532385372.255,24.414,38.574,38.086,21.484,-62.988
1532385372.259,16.602,42.480,41.992,22.949,-7.324
1532385372.263,15.625,32.227,41.992,23.438,64.453
1532385372.266,20.996,13.672,37.109,17.578,48.340
1532385372.270,30.762,26.367,39.551,19.043,-31.738
1532385372.274,34.668,20.508,46.875,23.438,-29.297
1532385372.278,40.527,12.207,43.945,33.691,67.383
1532385372.282,36.133,37.598,34.668,27.832,83.984
1532385372.286,33.691,54.688,32.715,20.996,0.488
1532385372.290,41.504,44.434,33.203,31.738,-35.156
1532385372.294,29.785,28.320,28.320,26.367,47.852
1532385372.298,14.648,34.668,22.949,17.578,67.383
1532385372.302,16.602,29.785,22.949,19.043,4.883
1532385372.305,21.973,10.254,20.508,25.391,-6.348
1532385372.309,23.438,20.508,17.578,22.949,43.457
1532385372.313,28.809,28.320,18.555,18.555,83.496
1532385372.317,34.668,26.367,17.090,22.949,24.902
1532385372.321,43.457,39.062,17.578,27.344,-44.434
1532385372.325,34.180,31.738,22.949,30.273,8.301
1532385372.329,29.297,33.203,32.715,38.574,93.262
1532385372.333,33.691,45.410,28.809,36.621,30.273
1532385372.337,40.527,44.434,21.973,33.203,-35.156
1532385372.341,43.945,35.156,23.438,39.551,-8.301
1532385372.345,42.969,42.969,22.461,39.551,54.688
1532385372.348,42.480,59.082,19.043,39.062,55.176
1532385372.352,44.922,51.758,18.555,34.668,-7.812
1532385372.356,51.758,48.340,21.484,43.457,-0.977
1532385372.360,56.152,50.781,28.809,55.176,62.500
1532385372.364,59.082,47.852,34.668,49.316,61.035
1532385372.368,63.965,54.688,29.785,51.270,-1.465
1532385372.372,63.477,47.363,23.438,56.152,-59.082
1532385372.376,65.918,44.434,25.391,56.641,9.766
1532385372.380,62.988,67.383,24.902,53.711,110.840
1532385372.384,62.012,74.219,24.902,49.316,36.621
1532385372.387,76.660,59.082,23.438,48.828,-30.273
1532385372.391,62.012,42.969,10.742,38.574,27.344
1532385372.395,46.387,36.621,4.883,33.203,100.586
1532385372.399,64.941,47.363,7.324,43.457,73.242
1532385372.403,67.383,51.270,4.395,41.992,-7.324
1532385372.407,62.988,40.039,11.719,37.598,-9.766
1532385372.411,52.246,59.570,16.113,31.738,75.195
1532385372.415,49.805,72.266,16.113,31.250,89.355
1532385372.419,56.152,62.012,9.766,33.203,0.977
1532385372.423,50.293,58.594,3.418,25.879,-37.109
1532385372.427,40.527,44.434,4.395,21.484,34.668
1532385372.430,41.016,41.016,2.441,23.926,80.078
1532385372.434,36.621,50.781,2.930,20.996,12.695
1532385372.438,29.785,43.945,5.859,24.414,-15.137
1532385372.442,37.598,35.645,8.301,30.762,40.527
1532385372.446,43.945,26.367,15.137,29.785,100.586
1532385372.450,41.504,16.113,16.602,24.414,63.477
1532385372.454,35.156,25.879,14.648,23.438,-13.672
1532385372.458,30.762,55.176,7.812,23.438,28.320
1532385372.462,38.574,54.199,18.555,34.180,109.863
1532385372.466,36.621,20.996,26.367,32.227,80.566
1532385372.470,20.508,23.438,19.043,22.949,-16.602
1532385372.473,24.414,40.527,24.414,27.344,-47.852
1532385372.477,43.945,43.457,33.691,28.320,78.125
1532385372.481,41.992,48.340,37.109,29.297,110.840
1532385372.485,31.738,39.551,34.180,31.250,-4.883
1532385372.489,47.852,44.922,40.527,43.457,-11.719
1532385372.493,57.617,40.039,39.551,47.363,78.125
1532385372.497,44.922,8.789,24.902,33.691,131.348
1532385372.501,43.945,-1.465,23.438,27.344,63.477
1532385372.505,47.852,8.301,32.227,28.809,-5.859
1532385372.509,37.109,46.387,38.574,28.320,39.551
1532385372.512,24.902,58.594,34.668,15.137,71.777
1532385372.516,16.602,52.734,31.250,8.789,27.832
1532385372.520,29.297,35.645,33.691,26.855,-31.738
1532385372.524,43.945,15.137,41.504,39.062,12.207
1532385372.528,41.016,28.809,36.621,24.902,106.445
1532385372.532,48.828,48.828,34.180,34.180,84.961
1532385372.536,64.941,43.457,40.039,43.945,3.418
1532385372.540,50.293,21.484,44.434,32.227,-2.441
1532385372.544,37.598,33.691,51.758,37.598,67.871
1532385372.548,29.785,41.504,39.551,33.691,89.355
1532385372.552,30.273,33.691,39.062,29.785,-11.719
1532385372.555,37.109,33.691,54.199,35.156,-86.426
1532385372.559,26.855,20.020,48.340,21.973,19.531
1532385372.563,20.020,25.391,42.969,12.695,71.777
1532385372.567,16.113,39.062,40.527,6.348,49.805
1532385372.571,26.367,29.785,42.969,10.254,12.695
1532385372.575,27.832,24.902,39.551,17.578,12.207
1532385372.579,24.414,32.715,42.969,18.555,111.328
1532385372.583,33.203,26.855,53.711,24.414,89.844
1532385372.587,37.598,27.832,51.758,25.879,-20.020
1532385372.591,34.668,44.922,48.828,27.832,-8.301
1532385372.595,35.645,41.016,40.039,27.344,76.172
1532385372.598,30.273,41.016,44.922,31.738,70.801
1532385372.602,25.879,33.203,48.828,26.367,14.160
1532385372.606,28.320,23.926,46.875,21.484,7.812
1532385372.610,31.250,24.902,46.387,25.391,60.547
1532385372.614,46.875,31.738,48.340,29.297,78.613
1532385372.618,40.527,43.945,42.969,30.273,38.086
1532385372.622,28.320,42.480,35.156,27.832,-0.488
1532385372.626,34.180,31.738,43.457,28.320,40.527
1532385372.630,38.086,21.484,46.875,25.391,86.426
1532385372.634,37.109,33.691,48.828,27.344,28.320
1532385372.637,32.715,50.781,44.434,21.973,-21.973
1532385372.641,30.762,39.062,42.969,18.555,3.906
1532385372.645,32.715,23.438,50.293,23.926,74.707
1532385372.649,34.180,25.879,51.270,23.926,32.227
1532385372.653,33.691,43.945,56.152,28.320,-62.500
1532385372.657,38.086,51.270,53.223,32.227,-8.301
1532385372.661,35.156,47.363,48.828,39.551,79.102
1532385372.665,35.645,43.945,60.059,50.293,58.105
1532385372.669,43.457,31.250,62.500,46.387,-17.578
1532385372.673,38.086,24.902,57.617,41.992,-48.340
1532385372.677,36.621,29.297,60.059,49.805,65.918
1532385372.680,39.062,38.086,61.035,45.898,123.535
1532385372.684,28.809,33.691,53.711,37.109,37.598
1532385372.688,28.809,31.738,47.852,37.598,-9.277
1532385372.692,39.551,34.180,53.223,39.062,24.902
1532385372.696,45.898,32.715,54.199,39.551,91.797
1532385372.700,45.410,42.969,45.898,35.156,79.102
1532385372.704,49.316,50.781,47.363,31.738,16.113
1532385372.708,45.410,52.734,60.059,36.133,12.207
1532385372.712,48.340,45.898,61.035,36.621,72.266
1532385372.716,57.617,41.504,60.547,36.133,86.426
1532385372.719,57.617,46.875,67.383,41.992,-1.953
1532385372.723,55.176,34.180,62.988,41.016,-22.461
1532385372.727,55.176,24.414,51.758,32.715,93.262
1532385372.731,43.457,26.367,46.875,20.996,94.727
1532385372.735,41.504,29.785,41.992,12.695,-2.930
1532385372.739,51.758,50.293,40.527,11.230,-49.805
1532385372.743,56.152,56.641,48.340,15.137,26.855
1532385372.747,52.734,38.086,52.246,21.484,99.121
1532385372.751,49.805,17.090,54.688,21.484,36.133
1532385372.755,39.551,40.039,57.617,24.902,-41.504
1532385372.759,32.715,61.523,53.711,35.156,10.742
1532385372.762,29.785,44.434,48.828,39.551,83.984
1532385372.766,23.926,33.691,50.781,32.227,55.176
1532385372.770,21.484,32.715,53.223,29.297,-31.250
1532385372.774,21.484,34.668,58.594,34.180,-27.832
1532385372.778,20.508,51.758,58.105,29.785,64.453
1532385372.782,29.785,51.270,55.664,32.227,60.059
1532385372.786,31.250,27.344,58.594,38.086,-20.996
1532385372.790,23.438,32.715,61.035,33.203,-42.480
1532385372.794,19.531,47.363,64.453,26.855,25.391
1532385372.798,30.762,24.414,64.453,33.203,77.637
1532385372.802,38.086,13.672,53.223,32.715,5.371
1532385372.805,25.391,24.902,45.898,22.949,-51.758
1532385372.809,17.578,32.715,42.480,21.484,19.043
1532385372.813,14.648,41.016,44.434,16.113,82.031
1532385372.817,20.508,37.598,51.758,19.043,24.902
1532385372.821,28.809,35.645,54.199,25.879,-42.969
1532385372.825,31.250,32.227,53.711,28.809,2.441
1532385372.829,37.598,32.715,49.805,33.203,76.660
1532385372.833,45.410,37.598,52.734,29.297,47.852
1532385372.837,50.293,48.828,62.012,39.551,-33.203
1532385372.841,49.316,39.551,56.152,46.875,-50.293
1532385372.844,42.480,18.066,46.875,32.227,51.758
1532385372.848,38.574,24.902,39.062,21.973,74.219
1532385372.852,53.223,27.344,33.691,23.926,-29.297
1532385372.856,59.082,14.160,40.039,24.414,-39.551
1532385372.860,44.434,34.180,45.898,24.902,59.082
1532385372.864,37.598,45.898,44.434,34.180,101.562
1532385372.868,37.109,39.551,41.504,27.344,20.508
1532385372.872,31.250,34.668,40.527,16.113,-29.785
1532385372.876,47.363,20.508,45.898,34.180,4.883
1532385372.880,56.641,12.695,56.641,47.363,85.449
1532385372.884,40.039,24.902,54.688,41.992,70.312
1532385372.887,35.156,43.457,50.781,36.621,-34.180
1532385372.891,34.180,40.527,53.711,29.297,-10.742
1532385372.895,33.203,48.828,50.781,24.414,82.520
1532385372.899,38.086,46.387,55.664,38.574,62.012
1532385372.903,39.062,33.203,56.152,45.898,-12.207
1532385372.907,43.945,31.738,54.688,44.434,-14.160
1532385372.911,48.340,27.344,63.477,47.852,59.570
1532385372.915,49.316,31.250,62.500,53.711,88.379
1532385372.919,56.152,49.316,61.523,58.594,-2.930
1532385372.923,44.922,51.758,58.594,49.805,-50.293
1532385372.927,40.527,42.969,46.875,41.992,67.871
1532385372.930,49.805,38.086,41.992,38.574,104.980
1532385372.934,39.551,28.320,51.758,36.133,18.066
1532385372.938,29.297,23.926,59.082,30.273,-14.648
1532385372.942,37.109,31.250,57.617,29.785,45.410
1532385372.946,39.062,39.062,52.246,31.738,104.492
1532385372.950,41.992,28.809,53.223,36.133,43.457
1532385372.954,46.875,21.973,56.641,41.016,-30.762
1532385372.958,43.945,37.598,58.105,36.621,3.418
1532385372.962,53.223,41.504,61.035,38.574,70.801
1532385372.966,59.082,22.949,57.617,41.992,76.660
1532385372.969,41.992,14.648,41.504,25.879,3.906
1532385372.973,36.621,30.762,40.039,18.555,-28.320
1532385372.977,40.527,41.016,43.945,22.949,84.473
1532385372.981,28.320,33.203,36.621,20.020,114.746
1532385372.985,25.879,35.156,44.922,22.461,26.367
1532385372.989,46.387,58.105,56.641,34.180,-24.902
1532385372.993,47.363,62.988,48.828,41.992,44.434
1532385372.997,40.527,53.711,42.480,33.203,118.652
1532385373.001,50.293,52.246,52.734,33.691,30.273
1532385373.005,45.410,44.434,60.059,33.691,-23.438
1532385373.009,39.551,33.203,61.523,31.250,25.879
1532385373.012,46.387,19.531,62.500,41.992,76.172
1532385373.016,51.758,12.695,59.082,40.527,41.992
1532385373.020,42.480,23.438,50.781,37.598,-35.156
1532385373.024,35.645,52.734,42.480,42.480,-6.348
1532385373.028,38.086,65.430,49.316,40.039,90.332
1532385373.032,33.691,59.570,58.594,37.598,61.035
1532385373.036,28.809,54.199,53.711,34.668,-46.875
1532385373.040,26.855,43.457,43.945,36.133,-23.926
1532385373.044,32.227,23.926,45.898,41.504,59.082
1532385373.048,32.227,11.719,53.223,35.156,76.172
1532385373.052,37.598,39.062,51.270,26.855,1.953
1532385373.055,41.016,50.781,57.129,31.250,-30.273
1532385373.059,39.551,37.109,54.199,36.621,29.785
1532385373.063,36.621,32.715,38.086,35.645,67.871
1532385373.067,32.227,42.480,44.922,40.039,33.691
1532385373.071,36.621,53.711,59.082,36.133,-57.617
1532385373.075,41.016,42.480,52.734,26.367,-20.020
1532385373.079,40.039,29.297,41.504,33.203,118.164
1532385373.083,33.203,32.227,46.387,32.227,107.422
1532385373.087,24.902,31.250,46.387,21.973,-6.348
1532385373.091,27.832,34.668,45.898,24.414,-13.184
1532385373.094,24.902,50.781,51.270,24.414,80.566
1532385373.098,11.719,47.363,46.387,11.719,83.496
1532385373.102,5.859,42.969,42.480,6.348,11.719
1532385373.106,5.371,41.016,42.969,3.906,-17.578
1532385373.110,13.672,41.016,42.969,8.789,57.617
1532385373.114,12.695,41.504,38.086,8.789,72.266
1532385373.118,25.879,32.227,38.086,10.742,-18.066
1532385373.122,43.457,44.922,55.664,28.809,-39.062
1532385373.126,36.133,68.848,64.453,35.645,32.227
1532385373.130,44.434,81.543,65.430,41.016,111.816
1532385373.134,63.965,90.820,70.312,52.246,58.594
1532385373.137,67.871,98.633,73.242,60.547,-20.020
1532385373.141,74.707,107.422,79.102,63.965,8.301
1532385373.145,83.984,120.117,84.473,68.359,93.262
1532385373.149,90.332,117.676,85.938,79.590,73.730
1532385373.153,99.609,102.539,80.566,87.891,-9.766
1532385373.157,95.703,88.379,69.824,81.055,-18.555
1532385373.161,93.262,74.707,68.359,74.219,52.246
1532385373.165,90.820,77.148,66.406,76.172,55.664
